"Czas (s) Seria nr 5";"Napięcie (V) Seria nr 5"
0.000;-0.030
0.050;0.033
0.100;-0.027
0.150;0.032
0.200;-0.026
0.250;0.030
0.300;-0.024
0.350;8.103
0.400;12.124
0.450;12.104
0.500;12.083
0.550;12.063
0.600;12.046
0.650;12.025
0.700;12.007
0.750;11.987
0.800;11.966
0.850;11.945
0.900;11.925
0.950;11.905
1.000;11.886
1.050;11.866
1.100;11.845
1.150;11.827
1.200;11.808
1.250;11.787
1.300;11.768
1.350;11.749
1.400;11.729
1.450;11.710
1.500;11.691
1.550;11.672
1.600;11.653
1.650;11.634
1.700;11.615
1.750;11.596
1.800;11.576
1.850;11.559
1.900;11.539
1.950;11.521
2.000;11.502
2.050;11.480
2.100;11.461
2.150;11.442
2.200;11.422
2.250;11.404
2.300;11.386
2.350;11.366
2.400;11.347
2.450;11.327
2.500;11.311
2.550;11.290
2.600;11.272
2.650;11.255
2.700;11.236
2.750;11.217
2.800;11.198
2.850;11.178
2.900;11.161
2.950;11.143
3.000;11.125
3.050;11.107
3.100;11.088
3.150;11.071
3.200;11.052
3.250;11.035
3.300;11.017
3.350;10.997
3.400;10.977
3.450;10.959
3.500;10.941
3.550;10.922
3.600;10.905
3.650;10.886
3.700;10.868
3.750;10.850
3.800;10.833
3.850;10.816
3.900;10.797
3.950;10.779
4.000;10.761
4.050;10.743
4.100;10.726
4.150;10.709
4.200;10.691
4.250;10.674
4.300;10.657
4.350;10.639
4.400;10.621
4.450;10.603
4.500;10.587
4.550;10.570
4.600;10.553
4.650;10.535
4.700;10.518
4.750;10.498
4.800;10.479
4.850;10.463
4.900;10.445
4.950;10.429
5.000;10.412
5.050;10.394
5.100;10.376
5.150;10.359
5.200;10.343
5.250;10.326
5.300;10.308
5.350;10.291
5.400;10.275
5.450;10.258
5.500;10.239
5.550;10.223
5.600;10.205
5.650;10.189
5.700;10.173
5.750;10.157
5.800;10.140
5.850;10.122
5.900;10.105
5.950;10.090
6.000;10.073
6.050;10.057
6.100;10.041
6.150;10.024
6.200;10.006
6.250;9.987
6.300;9.971
6.350;9.953
6.400;9.939
6.450;9.922
6.500;9.906
6.550;9.888
6.600;9.872
6.650;9.856
6.700;9.840
6.750;9.823
6.800;9.808
6.850;9.792
6.900;9.774
6.950;9.758
7.000;9.742
7.050;9.727
7.100;9.710
7.150;9.695
7.200;9.679
7.250;9.664
7.300;9.647
7.350;9.631
7.400;9.615
7.450;9.600
7.500;9.584
7.550;9.568
7.600;9.554
7.650;9.537
7.700;9.520
7.750;9.503
7.800;9.488
7.850;9.471
7.900;9.456
7.950;9.441
8.000;9.426
8.050;9.410
8.100;9.394
8.150;9.378
8.200;9.364
8.250;9.348
8.300;9.332
8.350;9.317
8.400;9.302
8.450;9.286
8.500;9.270
8.550;9.255
8.600;9.241
8.650;9.223
8.700;9.210
8.750;9.195
8.800;9.181
8.850;9.164
8.900;9.149
8.950;9.134
9.000;9.121
9.050;9.105
9.100;9.090
9.150;9.076
9.200;9.061
9.250;9.045
9.300;9.028
9.350;9.013
9.400;8.999
9.450;8.982
9.500;8.969
9.550;8.954
9.600;8.939
9.650;8.923
9.700;8.909
9.750;8.894
9.800;8.880
9.850;8.866
9.900;8.850
9.950;8.837
10.000;8.821
10.050;8.805
10.100;8.791
10.150;8.777
10.200;8.763
10.250;8.748
10.300;8.734
10.350;8.720
10.400;8.705
10.450;8.690
10.500;8.676
10.550;8.662
10.600;8.647
10.650;8.635
10.700;8.621
10.750;8.606
10.800;8.593
10.850;8.578
10.900;8.565
10.950;8.549
11.000;8.533
11.050;8.519
11.100;8.506
11.150;8.490
11.200;8.477
11.250;8.463
11.300;8.449
11.350;8.434
11.400;8.421
11.450;8.407
11.500;8.394
11.550;8.381
11.600;8.366
11.650;8.352
11.700;8.338
11.750;8.325
11.800;8.311
11.850;8.297
11.900;8.283
11.950;8.270
12.000;8.256
12.050;8.242
12.100;8.229
12.150;8.216
12.200;8.203
12.250;8.189
12.300;8.176
12.350;8.161
12.400;8.148
12.450;8.136
12.500;8.121
12.550;8.108
12.600;8.096
12.650;8.083
12.700;8.067
12.750;8.052
12.800;8.038
12.850;8.026
12.900;8.012
12.950;7.998
13.000;7.986
13.050;7.972
13.100;7.960
13.150;7.945
13.200;7.932
13.250;7.918
13.300;7.906
13.350;7.895
13.400;7.881
13.450;7.868
13.500;7.855
13.550;7.841
13.600;7.828
13.650;7.815
13.700;7.803
13.750;7.790
13.800;7.778
13.850;7.764
13.900;7.752
13.950;7.739
14.000;7.727
14.050;7.714
14.100;7.701
14.150;7.688
14.200;7.676
14.250;7.664
14.300;7.652
14.350;7.638
14.400;7.626
14.450;7.614
14.500;7.601
14.550;7.589
14.600;7.574
14.650;7.561
14.700;7.548
14.750;7.536
14.800;7.523
14.850;7.511
14.900;7.499
14.950;7.487
15.000;7.475
15.050;7.461
15.100;7.448
15.150;7.435
15.200;7.424
15.250;7.413
15.300;7.401
15.350;7.388
15.400;7.376
15.450;7.363
15.500;7.351
15.550;7.340
15.600;7.327
15.650;7.314
15.700;7.303
15.750;7.292
15.800;7.279
15.850;7.266
15.900;7.255
15.950;7.243
16.000;7.231
16.050;7.219
16.100;7.207
16.150;7.195
16.200;7.184
16.250;7.173
16.300;7.161
16.350;7.149
16.400;7.137
16.450;7.125
16.500;7.114
16.550;7.102
16.600;7.089
16.650;7.077
16.700;7.064
16.750;7.053
16.800;7.041
16.850;7.029
16.900;7.018
16.950;7.007
17.000;6.995
17.050;6.983
17.100;6.970
17.150;6.960
17.200;6.948
17.250;6.937
17.300;6.927
17.350;6.915
17.400;6.902
17.450;6.892
17.500;6.880
17.550;6.869
17.600;6.858
17.650;6.846
17.700;6.835
17.750;6.824
17.800;6.812
17.850;6.800
17.900;6.789
17.950;6.777
18.000;6.767
18.050;6.757
18.100;6.745
18.150;6.735
18.200;6.724
18.250;6.711
18.300;6.700
18.350;6.689
18.400;6.680
18.450;6.669
18.500;6.657
18.550;6.648
18.600;6.636
18.650;6.625
18.700;6.615
18.750;6.601
18.800;6.590
18.850;6.579
18.900;6.569
18.950;6.558
19.000;6.547
19.050;6.535
19.100;6.525
19.150;6.515
19.200;6.503
19.250;6.492
19.300;6.482
19.350;6.471
19.400;6.460
19.450;6.449
19.500;6.440
19.550;6.429
19.600;6.417
19.650;6.407
19.700;6.397
19.750;6.386
19.800;6.376
19.850;6.365
19.900;6.355
19.950;6.344
20.000;6.334
20.050;6.324
20.100;6.314
20.150;6.303
20.200;6.292
20.250;6.282
20.300;6.272
20.350;6.261
20.400;6.252
20.450;6.242
20.500;6.232
20.550;6.221
20.600;6.210
20.650;6.200
20.700;6.191
20.750;6.180
20.800;6.169
20.850;6.160
20.900;6.151
20.950;6.140
21.000;6.130
21.050;6.118
21.100;6.107
21.150;6.098
21.200;6.087
21.250;6.078
21.300;6.068
21.350;6.056
21.400;6.045
21.450;6.037
21.500;6.027
21.550;6.016
21.600;6.006
21.650;5.996
21.700;5.985
21.750;5.976
21.800;5.965
21.850;5.956
21.900;5.947
21.950;5.938
22.000;5.927
22.050;5.917
22.100;5.908
22.150;5.897
22.200;5.888
22.250;5.878
22.300;5.868
22.350;5.858
22.400;5.848
22.450;5.840
22.500;5.831
22.550;5.820
22.600;5.809
22.650;5.800
22.700;5.792
22.750;5.783
22.800;5.774
22.850;5.765
22.900;5.755
22.950;5.745
23.000;5.735
23.050;5.726
23.100;5.716
23.150;5.707
23.200;5.699
23.250;5.690
23.300;5.679
23.350;5.670
23.400;5.660
23.450;5.651
23.500;5.642
23.550;5.632
23.600;5.622
23.650;5.613
23.700;5.603
23.750;5.593
23.800;5.585
23.850;5.575
23.900;5.565
23.950;5.556
24.000;5.548
24.050;5.539
24.100;5.529
24.150;5.520
24.200;5.510
24.250;5.501
24.300;5.493
24.350;5.484
24.400;5.475
24.450;5.466
24.500;5.457
24.550;5.447
24.600;5.438
24.650;5.429
24.700;5.420
24.750;5.412
24.800;5.404
24.850;5.394
24.900;5.385
24.950;5.375
25.000;5.366
25.050;5.357
25.100;5.348
25.150;5.341
25.200;5.331
25.250;5.322
25.300;5.313
25.350;5.305
25.400;5.296
25.450;5.287
25.500;5.278
25.550;5.271
25.600;5.261
25.650;5.252
25.700;5.244
25.750;5.235
25.800;5.226
25.850;5.219
25.900;5.210
25.950;5.202
26.000;5.193
26.050;5.185
26.100;5.176
26.150;5.167
26.200;5.159
26.250;5.151
26.300;5.141
26.350;5.131
26.400;5.124
26.450;5.114
26.500;5.106
26.550;5.098
26.600;5.089
26.650;5.080
26.700;5.071
26.750;5.064
26.800;5.057
26.850;5.048
26.900;5.039
26.950;5.031
27.000;5.021
27.050;5.013
27.100;5.005
27.150;4.997
27.200;4.989
27.250;4.981
27.300;4.974
27.350;4.965
27.400;4.956
27.450;4.948
27.500;4.940
27.550;4.933
27.600;4.924
27.650;4.916
27.700;4.907
27.750;4.898
27.800;4.890
27.850;4.882
27.900;4.875
27.950;4.867
28.000;4.859
28.050;4.852
28.100;4.843
28.150;4.835
28.200;4.826
28.250;4.819
28.300;4.812
28.350;4.804
28.400;4.796
28.450;4.789
28.500;4.781
28.550;4.772
28.600;4.764
28.650;4.756
28.700;4.748
28.750;4.740
28.800;4.733
28.850;4.726
28.900;4.718
28.950;4.709
29.000;4.701
29.050;4.694
29.100;4.687
29.150;4.679
29.200;4.672
29.250;4.665
29.300;4.656
29.350;4.647
29.400;4.639
29.450;4.631
29.500;4.623
29.550;4.617
29.600;4.610
29.650;4.601
29.700;4.592
29.750;4.584
29.800;4.577
29.850;4.570
29.900;4.563
29.950;4.555
30.000;4.547
30.050;4.540
30.100;4.531
30.150;4.524
30.200;4.517
30.250;4.509
30.300;4.502
30.350;4.495
30.400;4.488
30.450;4.481
30.500;4.473
30.550;4.465
30.600;4.457
30.650;4.451
30.700;4.444
30.750;4.436
30.800;4.429
30.850;4.422
30.900;4.415
30.950;4.407
31.000;4.399
31.050;4.392
31.100;4.385
31.150;4.378
31.200;4.371
31.250;4.364
31.300;4.356
31.350;4.349
31.400;4.341
31.450;4.334
31.500;4.328
31.550;4.321
31.600;4.314
31.650;4.307
31.700;4.300
31.750;4.292
31.800;4.285
31.850;4.278
31.900;4.271
31.950;4.264
32.000;4.257
32.050;4.250
32.100;4.244
32.150;4.238
32.200;4.230
32.250;4.222
32.300;4.215
32.350;4.209
32.400;4.203
32.450;4.196
32.500;4.188
32.550;4.182
32.600;4.175
32.650;4.168
32.700;4.160
32.750;4.152
32.800;4.146
32.850;4.139
32.900;4.131
32.950;4.125
33.000;4.119
33.050;4.112
33.100;4.104
33.150;4.098
33.200;4.091
33.250;4.084
33.300;4.078
33.350;4.070
33.400;4.064
33.450;4.058
33.500;4.050
33.550;4.044
33.600;4.037
33.650;4.030
33.700;4.024
33.750;4.016
33.800;4.009
33.850;4.003
33.900;3.998
33.950;3.992
34.000;3.984
34.050;3.976
34.100;3.970
34.150;3.964
34.200;3.957
34.250;3.951
34.300;3.945
34.350;3.939
34.400;3.932
34.450;3.925
34.500;3.917
34.550;3.911
34.600;3.905
34.650;3.899
34.700;3.893
34.750;3.887
34.800;3.881
34.850;3.874
34.900;3.867
34.950;3.861
35.000;3.854
35.050;3.847
35.100;3.842
35.150;3.836
35.200;3.830
35.250;3.823
35.300;3.817
35.350;3.811
35.400;3.804
35.450;3.798
35.500;3.791
35.550;3.786
35.600;3.780
35.650;3.773
35.700;3.766
35.750;3.760
35.800;3.755
35.850;3.750
35.900;3.744
35.950;3.737
36.000;3.730
36.050;3.724
36.100;3.719
36.150;3.713
36.200;3.706
36.250;3.700
36.300;3.694
36.350;3.689
36.400;3.682
36.450;3.673
36.500;3.667
36.550;3.661
36.600;3.655
36.650;3.649
36.700;3.643
36.750;3.637
36.800;3.632
36.850;3.626
36.900;3.619
36.950;3.612
37.000;3.606
37.050;3.601
37.100;3.596
37.150;3.590
37.200;3.584
37.250;3.578
37.300;3.571
37.350;3.564
37.400;3.559
37.450;3.553
37.500;3.548
37.550;3.543
37.600;3.537
37.650;3.530
37.700;3.524
37.750;3.518
37.800;3.513
37.850;3.508
37.900;3.502
37.950;3.496
38.000;3.490
38.050;3.484
38.100;3.478
38.150;3.473
38.200;3.467
38.250;3.461
38.300;3.455
38.350;3.450
38.400;3.444
38.450;3.439
38.500;3.433
38.550;3.427
38.600;3.421
38.650;3.415
38.700;3.410
38.750;3.404
38.800;3.399
38.850;3.393
38.900;3.387
38.950;3.382
39.000;3.376
39.050;3.370
39.100;3.365
39.150;3.360
39.200;3.355
39.250;3.349
39.300;3.344
39.350;3.338
39.400;3.333
39.450;3.327
39.500;3.322
39.550;3.317
39.600;3.311
39.650;3.305
39.700;3.299
39.750;3.293
39.800;3.288
39.850;3.283
39.900;3.278
39.950;3.273
40.000;3.268
40.050;3.263
40.100;3.257
40.150;3.251
40.200;3.246
40.250;3.240
40.300;3.235
40.350;3.231
40.400;3.226
40.450;3.219
40.500;3.214
40.550;3.209
40.600;3.204
40.650;3.199
40.700;3.193
40.750;3.187
40.800;3.181
40.850;3.176
40.900;3.171
40.950;3.166
41.000;3.160
41.050;3.155
41.100;3.149
41.150;3.145
41.200;3.140
41.250;3.134
41.300;3.128
41.350;3.123
41.400;3.117
41.450;3.113
41.500;3.108
41.550;3.104
41.600;3.099
41.650;3.093
41.700;3.087
41.750;3.082
41.800;3.077
41.850;3.072
41.900;3.066
41.950;3.061
42.000;3.056
42.050;3.051
42.100;3.046
42.150;3.041
42.200;3.035
42.250;3.031
42.300;3.027
42.350;3.022
42.400;3.017
42.450;3.011
42.500;3.006
42.550;3.000
42.600;2.996
42.650;2.991
42.700;2.987
42.750;2.982
42.800;2.977
42.850;2.971
42.900;2.966
42.950;2.962
43.000;2.957
43.050;2.952
43.100;2.947
43.150;2.942
43.200;2.937
43.250;2.933
43.300;2.928
43.350;2.923
43.400;2.918
43.450;2.913
43.500;2.908
43.550;2.904
43.600;2.901
43.650;2.895
43.700;2.889
43.750;2.884
43.800;2.879
43.850;2.874
43.900;2.870
43.950;2.866
44.000;2.862
44.050;2.857
44.100;2.851
44.150;2.847
44.200;2.842
44.250;2.838
44.300;2.834
44.350;2.829
44.400;2.824
44.450;2.819
44.500;2.814
44.550;2.809
44.600;2.805
44.650;2.800
44.700;2.795
44.750;2.792
44.800;2.787
44.850;2.783
44.900;2.779
44.950;2.774
45.000;2.770
45.050;2.765
45.100;2.760
45.150;2.756
45.200;2.751
45.250;2.747
45.300;2.742
45.350;2.738
45.400;2.733
45.450;2.729
45.500;2.725
45.550;2.721
45.600;2.716
45.650;2.712
45.700;2.707
45.750;2.702
45.800;2.696
45.850;2.692
45.900;2.687
45.950;2.683
46.000;2.678
46.050;2.673
46.100;2.669
46.150;2.664
46.200;2.661
46.250;2.656
46.300;2.652
46.350;2.647
46.400;2.643
46.450;2.637
46.500;2.632
46.550;2.629
46.600;2.625
46.650;2.621
46.700;2.617
46.750;2.613
46.800;2.608
46.850;2.604
46.900;2.598
46.950;2.595
47.000;2.590
47.050;2.586
47.100;2.582
47.150;2.578
47.200;2.574
47.250;2.570
47.300;2.565
47.350;2.561
47.400;2.557
47.450;2.553
47.500;2.549
47.550;2.545
47.600;2.541
47.650;2.537
47.700;2.532
47.750;2.527
47.800;2.524
47.850;2.520
47.900;2.515
47.950;2.511
48.000;2.507
48.050;2.503
48.100;2.498
48.150;2.494
48.200;2.490
48.250;2.486
48.300;2.482
48.350;2.479
48.400;2.475
48.450;2.471
48.500;2.466
48.550;2.462
48.600;2.458
48.650;2.453
48.700;2.449
48.750;2.446
48.800;2.442
48.850;2.438
48.900;2.433
48.950;2.429
49.000;2.424
49.050;2.421
49.100;2.417
49.150;2.414
49.200;2.410
49.250;2.405
49.300;2.401
49.350;2.397
49.400;2.392
49.450;2.389
49.500;2.385
49.550;2.382
49.600;2.378
49.650;2.375
49.700;2.370
49.750;2.366
49.800;2.363
49.850;2.358
49.900;2.355
49.950;2.351
50.000;2.347
50.050;2.343
50.100;2.339
50.150;2.334
50.200;2.331
50.250;2.327
50.300;2.323
50.350;2.320
50.400;2.316
50.450;2.312
50.500;2.308
50.550;2.303
50.600;2.300
50.650;2.296
50.700;2.293
50.750;2.291
50.800;2.286
50.850;2.282
50.900;2.278
50.950;2.274
51.000;2.271
51.050;2.267
51.100;2.263
51.150;2.260
51.200;2.256
51.250;2.253
51.300;2.249
51.350;2.245
51.400;2.241
51.450;2.237
51.500;2.234
51.550;2.231
51.600;2.228
51.650;2.224
51.700;2.219
51.750;2.215
51.800;2.211
51.850;2.206
51.900;2.203
51.950;2.199
52.000;2.196
52.050;2.193
52.100;2.188
52.150;2.184
52.200;2.181
52.250;2.177
52.300;2.174
52.350;2.171
52.400;2.167
52.450;2.164
52.500;2.159
52.550;2.156
52.600;2.151
52.650;2.147
52.700;2.144
52.750;2.142
52.800;2.138
52.850;2.135
52.900;2.131
52.950;2.129
53.000;2.125
53.050;2.121
53.100;2.117
53.150;2.114
53.200;2.110
53.250;2.106
53.300;2.102
53.350;2.099
53.400;2.095
53.450;2.092
53.500;2.089
53.550;2.086
53.600;2.081
53.650;2.078
53.700;2.075
53.750;2.072
53.800;2.068
53.850;2.065
53.900;2.061
53.950;2.059
54.000;2.056
54.050;2.052
54.100;2.048
54.150;2.045
54.200;2.041
54.250;2.039
54.300;2.035
54.350;2.032
54.400;2.028
54.450;2.025
54.500;2.021
54.550;2.017
54.600;2.014
54.650;2.011
54.700;2.008
54.750;2.005
54.800;2.002
54.850;1.998
54.900;1.994
54.950;1.991
55.000;1.988
55.050;1.985
55.100;1.981
55.150;1.978
55.200;1.975
55.250;1.972
55.300;1.968
55.350;1.964
55.400;1.962
55.450;1.958
55.500;1.955
55.550;1.953
55.600;1.950
55.650;1.946
55.700;1.942
55.750;1.939
55.800;1.936
55.850;1.933
55.900;1.931
55.950;1.928
56.000;1.924
56.050;1.921
56.100;1.918
56.150;1.914
56.200;1.910
56.250;1.907
56.300;1.904
56.350;1.901
56.400;1.899
56.450;1.895
56.500;1.892
56.550;1.889
56.600;1.886
56.650;1.884
56.700;1.880
56.750;1.877
56.800;1.874
56.850;1.871
56.900;1.868
56.950;1.865
57.000;1.861
57.050;1.860
57.100;1.856
57.150;1.853
57.200;1.850
57.250;1.847
57.300;1.843
57.350;1.839
57.400;1.837
57.450;1.834
57.500;1.831
57.550;1.829
57.600;1.826
57.650;1.822
57.700;1.819
57.750;1.815
57.800;1.813
57.850;1.810
57.900;1.807
57.950;1.805
58.000;1.802
58.050;1.799
58.100;1.797
58.150;1.793
58.200;1.790
58.250;1.787
58.300;1.783
58.350;1.781
58.400;1.778
58.450;1.775
58.500;1.771
58.550;1.769
58.600;1.766
58.650;1.763
58.700;1.760
58.750;1.758
58.800;1.755
58.850;1.752
58.900;1.749
58.950;1.746
59.000;1.744
59.050;1.741
59.100;1.737
59.150;1.735
59.200;1.732
59.250;1.729
59.300;1.726
59.350;1.722
59.400;1.719
59.450;1.716
59.500;1.713
59.550;1.710
59.600;1.708
59.650;1.706
59.700;1.702
59.750;1.698
59.800;1.695
59.850;1.693
59.900;1.690
59.950;1.688
60.000;1.686
60.050;1.683
60.100;1.680
60.150;1.677
60.200;1.673
60.250;1.670
60.300;1.667
60.350;1.664
60.400;1.662
60.450;1.659
60.500;1.656
60.550;1.653
60.600;1.651
60.650;1.648
60.700;1.646
60.750;1.644
60.800;1.641
60.850;1.639
60.900;1.636
60.950;1.633
61.000;1.629
61.050;1.626
61.100;1.624
61.150;1.622
61.200;1.618
61.250;1.617
61.300;1.614
61.350;1.611
61.400;1.608
61.450;1.605
61.500;1.602
61.550;1.600
61.600;1.597
61.650;1.595
61.700;1.593
61.750;1.590
61.800;1.587
61.850;1.586
61.900;1.582
61.950;1.579
62.000;1.577
62.050;1.574
62.100;1.572
62.150;1.569
62.200;1.565
62.250;1.563
62.300;1.561
62.350;1.559
62.400;1.557
62.450;1.554
62.500;1.552
62.550;1.550
62.600;1.546
62.650;1.544
62.700;1.541
62.750;1.538
62.800;1.536
62.850;1.533
62.900;1.530
62.950;1.528
63.000;1.525
63.050;1.523
63.100;1.520
63.150;1.518
63.200;1.516
63.250;1.515
63.300;1.511
63.350;1.508
63.400;1.505
63.450;1.503
63.500;1.501
63.550;1.499
63.600;1.496
63.650;1.494
63.700;1.491
63.750;1.489
63.800;1.486
63.850;1.484
63.900;1.481
63.950;1.479
64.000;1.476
64.050;1.475
64.100;1.472
64.150;1.469
64.200;1.467
64.250;1.464
64.300;1.461
64.350;1.459
64.400;1.457
64.450;1.455
64.500;1.452
64.550;1.449
64.600;1.447
64.650;1.444
64.700;1.443
64.750;1.441
64.800;1.438
64.850;1.436
64.900;1.434
64.950;1.432
65.000;1.428
65.050;1.425
65.100;1.423
65.150;1.421
65.200;1.418
65.250;1.416
65.300;1.414
65.350;1.412
65.400;1.409
65.450;1.407
65.500;1.405
65.550;1.403
65.600;1.401
65.650;1.399
65.700;1.397
65.750;1.395
65.800;1.391
65.850;1.389
65.900;1.386
65.950;1.384
66.000;1.382
66.050;1.380
66.100;1.378
66.150;1.376
66.200;1.374
66.250;1.372
66.300;1.369
66.350;1.367
66.400;1.365
66.450;1.363
66.500;1.361
66.550;1.358
66.600;1.355
66.650;1.352
66.700;1.350
66.750;1.348
66.800;1.346
66.850;1.344
66.900;1.343
66.950;1.340
67.000;1.337
67.050;1.335
67.100;1.333
67.150;1.331
67.200;1.328
67.250;1.327
67.300;1.324
67.350;1.323
67.400;1.319
67.450;1.318
67.500;1.316
67.550;1.314
67.600;1.311
67.650;1.310
67.700;1.308
67.750;1.306
67.800;1.303
67.850;1.301
67.900;1.299
67.950;1.297
68.000;1.294
68.050;1.293
68.100;1.290
68.150;1.288
68.200;1.285
68.250;1.283
68.300;1.281
68.350;1.280
68.400;1.279
68.450;1.277
68.500;1.275
68.550;1.273
68.600;1.270
68.650;1.267
68.700;1.265
68.750;1.263
68.800;1.262
68.850;1.259
68.900;1.257
68.950;1.255
69.000;1.253
69.050;1.251
69.100;1.248
69.150;1.248
69.200;1.246
69.250;1.243
69.300;1.241
69.350;1.239
69.400;1.236
69.450;1.233
69.500;1.231
69.550;1.229
69.600;1.227
69.650;1.225
69.700;1.224
69.750;1.221
69.800;1.219
69.850;1.217
69.900;1.214
69.950;1.212
70.000;1.209
70.050;1.208
70.100;1.206
70.150;1.204
70.200;1.202
70.250;1.201
70.300;1.198
70.350;1.196
70.400;1.195
70.450;1.193
70.500;1.192
70.550;1.190
70.600;1.187
70.650;1.184
70.700;1.181
70.750;1.180
70.800;1.177
70.850;1.176
70.900;1.174
70.950;1.172
71.000;1.170
71.050;1.169
71.100;1.166
71.150;1.164
71.200;1.163
71.250;1.162
71.300;1.160
71.350;1.158
71.400;1.156
71.450;1.154
71.500;1.152
71.550;1.150
71.600;1.148
71.650;1.146
71.700;1.144
71.750;1.143
71.800;1.141
71.850;1.139
71.900;1.137
71.950;1.135
72.000;1.134
72.050;1.131
72.100;1.130
72.150;1.128
72.200;1.126
72.250;1.123
72.300;1.121
72.350;1.120
72.400;1.116
72.450;1.115
72.500;1.113
72.550;1.112
72.600;1.109
72.650;1.108
72.700;1.106
72.750;1.104
72.800;1.102
72.850;1.101
72.900;1.099
72.950;1.098
73.000;1.096
73.050;1.095
73.100;1.092
73.150;1.091
73.200;1.088
73.250;1.086
73.300;1.085
73.350;1.083
73.400;1.081
73.450;1.079
73.500;1.077
73.550;1.076
73.600;1.074
73.650;1.073
73.700;1.071
73.750;1.070
73.800;1.068
73.850;1.067
73.900;1.065
73.950;1.063
74.000;1.061
74.050;1.060
74.100;1.058
74.150;1.057
74.200;1.054
74.250;1.052
74.300;1.050
74.350;1.047
74.400;1.045
74.450;1.044
74.500;1.042
74.550;1.041
74.600;1.039
74.650;1.038
74.700;1.036
74.750;1.035
74.800;1.033
74.850;1.031
74.900;1.030
74.950;1.028
75.000;1.026
75.050;1.025
75.100;1.022
75.150;1.020
75.200;1.019
75.250;1.017
75.300;1.016
75.350;1.015
75.400;1.013
75.450;1.012
75.500;1.010
75.550;1.007
75.600;1.006
75.650;1.004
75.700;1.002
75.750;1.001
75.800;0.999
75.850;0.997
75.900;0.995
75.950;0.993
76.000;0.992
76.050;0.991
76.100;0.989
76.150;0.988
76.200;0.986
76.250;0.985
76.300;0.983
76.350;0.981
76.400;0.979
76.450;0.978
76.500;0.976
76.550;0.975
76.600;0.973
76.650;0.972
76.700;0.971
76.750;0.969
76.800;0.967
76.850;0.965
76.900;0.964
76.950;0.962
77.000;0.961
77.050;0.959
77.100;0.957
77.150;0.956
77.200;0.954
77.250;0.953
77.300;0.951
77.350;0.950
77.400;0.949
77.450;0.948
77.500;0.946
77.550;0.944
77.600;0.942
77.650;0.940
77.700;0.938
77.750;0.937
77.800;0.935
77.850;0.934
77.900;0.932
77.950;0.930
78.000;0.928
78.050;0.927
78.100;0.926
78.150;0.925
78.200;0.923
78.250;0.922
78.300;0.920
78.350;0.918
78.400;0.917
78.450;0.916
78.500;0.915
78.550;0.914
78.600;0.912
78.650;0.911
78.700;0.909
78.750;0.907
78.800;0.905
78.850;0.904
78.900;0.903
78.950;0.901
79.000;0.900
79.050;0.899
79.100;0.896
79.150;0.895
79.200;0.894
79.250;0.892
79.300;0.891
79.350;0.890
79.400;0.889
79.450;0.888
79.500;0.886
79.550;0.885
79.600;0.882
79.650;0.882
79.700;0.880
79.750;0.879
79.800;0.877
79.850;0.875
79.900;0.874
79.950;0.872
80.000;0.870
80.050;0.869
80.100;0.867
80.150;0.865
80.200;0.864
80.250;0.863
80.300;0.862
80.350;0.860
80.400;0.859
80.450;0.857
80.500;0.856
80.550;0.856
80.600;0.854
80.650;0.853
80.700;0.851
80.750;0.849
80.800;0.848
80.850;0.846
80.900;0.845
80.950;0.844
81.000;0.842
81.050;0.841
81.100;0.840
81.150;0.838
81.200;0.836
81.250;0.835
81.300;0.834
81.350;0.832
81.400;0.832
81.450;0.831
81.500;0.829
81.550;0.828
81.600;0.826
81.650;0.825
81.700;0.824
81.750;0.822
81.800;0.821
81.850;0.821
81.900;0.819
81.950;0.817
82.000;0.816
82.050;0.814
82.100;0.813
82.150;0.811
82.200;0.810
82.250;0.809
82.300;0.807
82.350;0.805
82.400;0.804
82.450;0.803
82.500;0.801
82.550;0.800
82.600;0.799
82.650;0.798
82.700;0.797
82.750;0.795
82.800;0.794
82.850;0.793
82.900;0.792
82.950;0.791
83.000;0.790
83.050;0.788
83.100;0.787
83.150;0.786
83.200;0.784
83.250;0.783
83.300;0.781
83.350;0.781
83.400;0.779
83.450;0.778
83.500;0.777
83.550;0.775
83.600;0.774
83.650;0.772
83.700;0.771
83.750;0.769
83.800;0.768
83.850;0.768
83.900;0.767
83.950;0.765
84.000;0.764
84.050;0.762
84.100;0.761
84.150;0.760
84.200;0.759
84.250;0.757
84.300;0.756
84.350;0.755
84.400;0.753
84.450;0.752
84.500;0.751
84.550;0.749
84.600;0.748
84.650;0.747
84.700;0.746
84.750;0.744
84.800;0.742
84.850;0.741
84.900;0.740
84.950;0.738
85.000;0.737
85.050;0.737
85.100;0.735
85.150;0.734
85.200;0.732
85.250;0.731
85.300;0.730
85.350;0.728
85.400;0.727
85.450;0.727
85.500;0.725
85.550;0.724
85.600;0.722
85.650;0.721
85.700;0.720
85.750;0.720
85.800;0.717
85.850;0.716
85.900;0.715
85.950;0.714
86.000;0.713
86.050;0.712
86.100;0.711
86.150;0.709
86.200;0.709
86.250;0.708
86.300;0.707
86.350;0.706
86.400;0.705
86.450;0.703
86.500;0.701
86.550;0.701
86.600;0.699
86.650;0.698
86.700;0.698
86.750;0.697
86.800;0.694
86.850;0.693
86.900;0.691
86.950;0.691
87.000;0.689
87.050;0.688
87.100;0.687
87.150;0.686
87.200;0.686
87.250;0.683
87.300;0.682
87.350;0.682
87.400;0.681
87.450;0.680
87.500;0.679
87.550;0.678
87.600;0.677
87.650;0.675
87.700;0.674
87.750;0.673
87.800;0.673
87.850;0.672
87.900;0.671
87.950;0.669
88.000;0.668
88.050;0.667
88.100;0.666
88.150;0.665
88.200;0.664
88.250;0.662
88.300;0.662
88.350;0.661
88.400;0.659
88.450;0.658
88.500;0.657
88.550;0.656
88.600;0.655
88.650;0.653
88.700;0.652
88.750;0.652
88.800;0.651
88.850;0.650
88.900;0.648
88.950;0.648
89.000;0.647
89.050;0.645
89.100;0.644
89.150;0.644
89.200;0.643
89.250;0.642
89.300;0.640
89.350;0.639
89.400;0.637
89.450;0.636
89.500;0.635
89.550;0.635
89.600;0.633
89.650;0.632
89.700;0.630
89.750;0.629
89.800;0.628
89.850;0.627
89.900;0.626
89.950;0.625
90.000;0.625
90.050;0.624
90.100;0.622
90.150;0.621
90.200;0.620
90.250;0.620
90.300;0.618
90.350;0.618
90.400;0.617
90.450;0.616
90.500;0.614
90.550;0.613
90.600;0.612
90.650;0.612
90.700;0.611
90.750;0.610
90.800;0.610
90.850;0.608
90.900;0.607
90.950;0.606
91.000;0.604
91.050;0.604
91.100;0.603
91.150;0.602
91.200;0.602
91.250;0.600
91.300;0.597
91.350;0.597
91.400;0.596
91.450;0.596
91.500;0.594
91.550;0.594
91.600;0.593
91.650;0.592
91.700;0.591
91.750;0.589
91.800;0.589
91.850;0.588
91.900;0.587
91.950;0.587
92.000;0.586
92.050;0.585
92.100;0.584
92.150;0.582
92.200;0.581
92.250;0.581
92.300;0.580
92.350;0.580
92.400;0.579
92.450;0.578
92.500;0.577
92.550;0.575
92.600;0.575
92.650;0.574
92.700;0.573
92.750;0.572
92.800;0.572
92.850;0.570
92.900;0.569
92.950;0.567
93.000;0.566
93.050;0.565
93.100;0.565
93.150;0.563
93.200;0.563
93.250;0.561
93.300;0.560
93.350;0.559
93.400;0.558
93.450;0.558
93.500;0.557
93.550;0.556
93.600;0.555
93.650;0.554
93.700;0.553
93.750;0.552
93.800;0.551
93.850;0.550
93.900;0.550
93.950;0.549
94.000;0.549
94.050;0.548
94.100;0.547
94.150;0.547
94.200;0.545
94.250;0.544
94.300;0.544
94.350;0.542
94.400;0.542
94.450;0.541
94.500;0.541
94.550;0.539
94.600;0.538
94.650;0.537
94.700;0.536
94.750;0.535
94.800;0.535
94.850;0.534
94.900;0.533
94.950;0.532
95.000;0.530
95.050;0.529
95.100;0.528
95.150;0.527
95.200;0.527
95.250;0.527
95.300;0.526
95.350;0.525
95.400;0.524
95.450;0.523
95.500;0.523
95.550;0.522
95.600;0.521
95.650;0.520
95.700;0.519
95.750;0.518
95.800;0.517
95.850;0.516
95.900;0.515
95.950;0.514
96.000;0.513
96.050;0.513
96.100;0.512
96.150;0.511
96.200;0.510
96.250;0.509
96.300;0.508
96.350;0.508
96.400;0.507
96.450;0.506
96.500;0.506
96.550;0.505
96.600;0.503
96.650;0.502
96.700;0.502
96.750;0.500
96.800;0.500
96.850;0.499
96.900;0.499
96.950;0.498
97.000;0.497
97.050;0.495
97.100;0.494
97.150;0.494
97.200;0.493
97.250;0.493
97.300;0.492
97.350;0.491
97.400;0.490
97.450;0.489
97.500;0.488
97.550;0.487
97.600;0.487
97.650;0.486
97.700;0.486
97.750;0.485
97.800;0.484
97.850;0.483
97.900;0.482
97.950;0.480
98.000;0.480
98.050;0.479
98.100;0.479
98.150;0.478
98.200;0.478
98.250;0.476
98.300;0.475
98.350;0.474
98.400;0.473
98.450;0.473
98.500;0.473
98.550;0.472
98.600;0.471
98.650;0.470
98.700;0.469
98.750;0.468
98.800;0.468
98.850;0.467
98.900;0.467
98.950;0.467
99.000;0.466
99.050;0.465
99.100;0.464
99.150;0.463
99.200;0.463
99.250;0.461
99.300;0.461
99.350;0.460
99.400;0.459
99.450;0.458
99.500;0.458
99.550;0.456
99.600;0.455
99.650;0.455
99.700;0.455
99.750;0.454
99.800;0.454
99.850;0.452
99.900;0.451
99.950;0.450
100.000;0.449
100.050;0.448
100.100;0.447
100.150;0.447
100.200;0.447
100.250;0.446
100.300;0.444
100.350;0.443
100.400;0.443
100.450;0.442
100.500;0.442
100.550;0.441
100.600;0.440
100.650;0.450
100.700;0.455
100.750;0.438
100.800;0.437
100.850;0.437
100.900;0.436
100.950;0.436
101.000;0.435
101.050;0.435
101.100;0.433
101.150;0.432
101.200;0.432
101.250;0.432
101.300;0.431
101.350;0.431
101.400;0.430
101.450;0.429
101.500;0.429
101.550;0.428
101.600;0.426
101.650;0.426
101.700;0.425
101.750;0.425
101.800;0.424
101.850;0.424
101.900;0.424
101.950;0.422
102.000;0.421
102.050;0.421
102.100;0.420
102.150;0.419
102.200;0.419
102.250;0.418
102.300;0.417
102.350;0.416
102.400;0.416
102.450;0.415
102.500;0.414
102.550;0.414
102.600;0.413
102.650;0.413
102.700;0.412
102.750;0.411
102.800;0.410
102.850;0.409
102.900;0.409
102.950;0.408
103.000;0.408
103.050;0.407
103.100;0.407
103.150;0.406
103.200;0.405
103.250;0.405
103.300;0.404
103.350;0.403
103.400;0.403
103.450;0.403
103.500;0.402
103.550;0.401
103.600;0.400
103.650;0.400
103.700;0.399
103.750;0.399
103.800;0.399
103.850;0.398
103.900;0.397
103.950;0.396
104.000;0.395
104.050;0.394
104.100;0.394
104.150;0.393
104.200;0.393
104.250;0.392
104.300;0.392
104.350;0.391
104.400;0.390
104.450;0.389
104.500;0.389
104.550;0.388
104.600;0.387
104.650;0.387
104.700;0.386
104.750;0.385
104.800;0.385
104.850;0.384
104.900;0.383
104.950;0.382
105.000;0.382
105.050;0.382
105.100;0.381
105.150;0.380
105.200;0.379
105.250;0.378
105.300;0.377
105.350;0.377
105.400;0.377
105.450;0.376
105.500;0.376
105.550;0.376
105.600;0.375
105.650;0.373
105.700;0.373
105.750;0.373
105.800;0.372
105.850;0.372
105.900;0.371
105.950;0.370
106.000;0.370
106.050;0.369
106.100;0.368
106.150;0.368
106.200;0.367
106.250;0.367
106.300;0.367
106.350;0.366
106.400;0.365
106.450;0.364
106.500;0.363
106.550;0.363
106.600;0.362
106.650;0.362
106.700;0.362
106.750;0.361
106.800;0.361
106.850;0.359
106.900;0.359
106.950;0.358
107.000;0.357
107.050;0.356
107.100;0.356
107.150;0.356
107.200;0.355
107.250;0.354
107.300;0.353
107.350;0.353
107.400;0.353
107.450;0.352
107.500;0.352
107.550;0.351
107.600;0.351
107.650;0.349
107.700;0.349
107.750;0.348
107.800;0.348
107.850;0.347
107.900;0.347
107.950;0.347
108.000;0.346
108.050;0.345
108.100;0.345
108.150;0.345
108.200;0.344
108.250;0.344
108.300;0.344
108.350;0.343
108.400;0.343
108.450;0.342
108.500;0.341
108.550;0.340
108.600;0.340
108.650;0.339
108.700;0.339
108.750;0.339
108.800;0.339
108.850;0.338
108.900;0.337
108.950;0.336
109.000;0.336
109.050;0.335
109.100;0.335
109.150;0.335
109.200;0.334
109.250;0.334
109.300;0.333
109.350;0.333
109.400;0.332
109.450;0.332
109.500;0.331
109.550;0.331
109.600;0.330
109.650;0.330
109.700;0.329
109.750;0.328
109.800;0.328
109.850;0.327
109.900;0.327
109.950;0.326
110.000;0.326
110.050;0.326
110.100;0.324
110.150;0.324
110.200;0.322
110.250;0.322
110.300;0.322
110.350;0.321
110.400;0.321
110.450;0.320
110.500;0.320
110.550;0.319
110.600;0.318
110.650;0.318
110.700;0.317
110.750;0.317
110.800;0.317
110.850;0.316
110.900;0.315
110.950;0.314
111.000;0.314
111.050;0.314
111.100;0.313
111.150;0.313
111.200;0.312
111.250;0.312
111.300;0.311
111.350;0.310
111.400;0.310
111.450;0.309
111.500;0.309
111.550;0.309
111.600;0.309
111.650;0.308
111.700;0.307
111.750;0.306
111.800;0.306
111.850;0.306
111.900;0.305
111.950;0.305
112.000;0.305
112.050;0.304
112.100;0.303
112.150;0.303
112.200;0.302
112.250;0.302
112.300;0.301
112.350;0.301
112.400;0.301
112.450;0.300
112.500;0.300
112.550;0.299
112.600;0.299
112.650;0.298
112.700;0.298
112.750;0.297
112.800;0.298
112.850;0.297
112.900;0.296
112.950;0.295
113.000;0.295
113.050;0.294
113.100;0.294
113.150;0.294
113.200;0.293
113.250;0.292
113.300;0.292
113.350;0.292
113.400;0.290
113.450;0.290
113.500;0.290
113.550;0.290
113.600;0.290
113.650;0.289
113.700;0.288
113.750;0.287
113.800;0.287
113.850;0.285
113.900;0.285
113.950;0.285
114.000;0.285
114.050;0.285
114.100;0.285
114.150;0.284
114.200;0.283
114.250;0.282
114.300;0.282
114.350;0.282
114.400;0.282
114.450;0.281
114.500;0.281
114.550;0.281
114.600;0.280
114.650;0.280
114.700;0.279
114.750;0.279
114.800;0.278
114.850;0.278
114.900;0.278
114.950;0.277
115.000;0.276
115.050;0.276
115.100;0.275
115.150;0.275
115.200;0.275
115.250;0.274
115.300;0.274
115.350;0.274
115.400;0.273
115.450;0.273
115.500;0.272
115.550;0.272
115.600;0.272
115.650;0.271
115.700;0.270
115.750;0.270
115.800;0.270
115.850;0.268
115.900;0.268
115.950;0.268
116.000;0.268
116.050;0.267
116.100;0.268
116.150;0.267
116.200;0.266
116.250;0.265
116.300;0.265
116.350;0.264
116.400;0.264
116.450;0.263
116.500;0.263
116.550;0.262
116.600;0.262
116.650;0.260
116.700;0.261
116.750;0.260
116.800;0.260
116.850;0.259
116.900;0.259
116.950;0.259
117.000;0.258
117.050;0.257
117.100;0.257
117.150;0.256
117.200;0.257
117.250;0.256
117.300;0.256
117.350;0.256
117.400;0.255
117.450;0.253
117.500;0.253
117.550;0.252
117.600;0.252
117.650;0.251
117.700;0.251
117.750;0.251
117.800;0.251
117.850;0.250
117.900;0.249
117.950;0.249
118.000;0.249
118.050;0.248
118.100;0.248
118.150;0.248
118.200;0.247
118.250;0.247
118.300;0.246
118.350;0.246
118.400;0.245
118.450;0.245
118.500;0.245
118.550;0.245
118.600;0.244
118.650;0.243
118.700;0.243
118.750;0.243
118.800;0.243
118.850;0.242
118.900;0.242
118.950;0.242
119.000;0.242
119.050;0.241
119.100;0.241
119.150;0.240
119.200;0.240
119.250;0.239
119.300;0.239
119.350;0.239
119.400;0.238
119.450;0.237
119.500;0.237
119.550;0.236
119.600;0.236
119.650;0.236
119.700;0.236
119.750;0.235
119.800;0.235
119.850;0.235
119.900;0.234
119.950;0.233
120.000;0.233
120.050;0.233
120.100;0.232
120.150;0.233
120.200;0.232
120.250;0.232
120.300;0.231
120.350;0.230
120.400;0.230
120.450;0.229
120.500;0.229
120.550;0.229
120.600;0.229
120.650;0.228
120.700;0.228
120.750;0.227
120.800;0.226
120.850;0.226
120.900;0.226
120.950;0.226
121.000;0.226
121.050;0.225
121.100;0.225
121.150;0.224
121.200;0.224
121.250;0.224
121.300;0.224
121.350;0.223
121.400;0.223
121.450;0.222
121.500;0.221
121.550;0.221
121.600;0.221
121.650;0.221
121.700;0.221
121.750;0.221
121.800;0.221
121.850;0.220
121.900;0.219
121.950;0.219
122.000;0.218
122.050;0.218
122.100;0.218
122.150;0.218
122.200;0.218
122.250;0.218
122.300;0.217
122.350;0.216
122.400;0.216
122.450;0.215
122.500;0.215
122.550;0.215
122.600;0.215
122.650;0.214
122.700;0.214
122.750;0.213
122.800;0.213
122.850;0.213
122.900;0.212
122.950;0.212
123.000;0.212
123.050;0.212
123.100;0.211
123.150;0.210
123.200;0.209
123.250;0.209
123.300;0.209
123.350;0.209
123.400;0.209
123.450;0.208
123.500;0.207
123.550;0.206
123.600;0.206
123.650;0.206
123.700;0.206
123.750;0.206
123.800;0.206
123.850;0.205
123.900;0.205
123.950;0.204
124.000;0.204
124.050;0.204
124.100;0.204
124.150;0.203
124.200;0.203
124.250;0.203
124.300;0.203
124.350;0.202
124.400;0.201
124.450;0.201
124.500;0.201
124.550;0.200
124.600;0.201
124.650;0.200
124.700;0.200
124.750;0.199
124.800;0.198
124.850;0.198
124.900;0.197
124.950;0.197
125.000;0.197
125.050;0.197
125.100;0.197
125.150;0.197
125.200;0.196
125.250;0.195
125.300;0.195
125.350;0.195
125.400;0.195
125.450;0.195
125.500;0.195
125.550;0.194
125.600;0.193
125.650;0.193
125.700;0.193
125.750;0.193
125.800;0.192
125.850;0.192
125.900;0.192
125.950;0.191
126.000;0.190
126.050;0.190
126.100;0.190
126.150;0.189
126.200;0.190
126.250;0.190
126.300;0.189
126.350;0.188
126.400;0.188
126.450;0.188
126.500;0.188
126.550;0.188
126.600;0.188
126.650;0.187
126.700;0.187
126.750;0.187
126.800;0.187
126.850;0.186
126.900;0.186
126.950;0.185
127.000;0.185
127.050;0.186
127.100;0.186
127.150;0.184
127.200;0.184
127.250;0.184
127.300;0.184
127.350;0.183
127.400;0.184
127.450;0.183
127.500;0.183
127.550;0.182
127.600;0.182
127.650;0.181
127.700;0.181
127.750;0.181
127.800;0.181
127.850;0.180
127.900;0.181
127.950;0.180
128.000;0.180
128.050;0.179
128.100;0.179
128.150;0.178
128.200;0.178
128.250;0.179
128.300;0.179
128.350;0.178
128.400;0.178
128.450;0.177
128.500;0.176
128.550;0.176
128.600;0.176
128.650;0.176
128.700;0.176
128.750;0.176
128.800;0.175
128.850;0.175
128.900;0.174
128.950;0.174
129.000;0.174
129.050;0.174
129.100;0.174
129.150;0.173
129.200;0.173
129.250;0.173
129.300;0.172
129.350;0.172
129.400;0.172
129.450;0.172
129.500;0.172
129.550;0.171
129.600;0.171
129.650;0.170
129.700;0.169
129.750;0.169
129.800;0.169
129.850;0.169
129.900;0.169
129.950;0.169
130.000;0.168
130.050;0.167
130.100;0.167
130.150;0.167
130.200;0.166
130.250;0.166
130.300;0.167
130.350;0.166
130.400;0.165
130.450;0.165
130.500;0.165
130.550;0.165
130.600;0.165
130.650;0.165
130.700;0.165
130.750;0.164
130.800;0.164
130.850;0.163
130.900;0.163
130.950;0.163
131.000;0.163
131.050;0.163
131.100;0.163
131.150;0.163
131.200;0.162
131.250;0.161
131.300;0.161
131.350;0.161
131.400;0.161
131.450;0.161
131.500;0.161
131.550;0.161
131.600;0.160
131.650;0.160
131.700;0.159
131.750;0.159
131.800;0.159
131.850;0.158
131.900;0.159
131.950;0.159
132.000;0.158
132.050;0.157
132.100;0.157
132.150;0.157
132.200;0.157
132.250;0.157
132.300;0.157
132.350;0.157
132.400;0.156
132.450;0.156
132.500;0.156
132.550;0.155
132.600;0.155
132.650;0.154
132.700;0.155
132.750;0.155
132.800;0.154
132.850;0.153
132.900;0.153
132.950;0.153
133.000;0.153
133.050;0.153
133.100;0.153
133.150;0.153
133.200;0.152
133.250;0.151
133.300;0.151
133.350;0.151
133.400;0.151
133.450;0.149
133.500;0.151
133.550;0.150
133.600;0.149
133.650;0.149
133.700;0.148
133.750;0.148
133.800;0.148
133.850;0.148
133.900;0.149
133.950;0.148
134.000;0.147
134.050;0.147
134.100;0.147
134.150;0.146
134.200;0.146
134.250;0.146
134.300;0.146
134.350;0.146
134.400;0.146
134.450;0.145
134.500;0.145
134.550;0.144
134.600;0.144
134.650;0.145
134.700;0.144
134.750;0.144
134.800;0.144
134.850;0.143
134.900;0.143
134.950;0.142
135.000;0.143
135.050;0.143
135.100;0.143
135.150;0.142
135.200;0.142
135.250;0.142
135.300;0.141
135.350;0.141
135.400;0.140
135.450;0.140
135.500;0.141
135.550;0.141
135.600;0.141
135.650;0.140
135.700;0.139
135.750;0.139
135.800;0.139
135.850;0.139
135.900;0.139
135.950;0.139
136.000;0.138
136.050;0.137
136.100;0.137
136.150;0.137
136.200;0.137
136.250;0.136
136.300;0.136
136.350;0.136
136.400;0.136
136.450;0.135
136.500;0.135
136.550;0.135
136.600;0.135
136.650;0.134
136.700;0.134
136.750;0.134
136.800;0.134
136.850;0.133
136.900;0.133
136.950;0.133
137.000;0.133
137.050;0.133
137.100;0.133
137.150;0.132
137.200;0.133
137.250;0.132
137.300;0.131
137.350;0.131
137.400;0.131
137.450;0.131
137.500;0.131
137.550;0.131
137.600;0.131
137.650;0.130
137.700;0.130
137.750;0.130
137.800;0.130
137.850;0.129
137.900;0.130
137.950;0.129
138.000;0.129
138.050;0.129
138.100;0.129
138.150;0.128
138.200;0.128
138.250;0.128
138.300;0.128
138.350;0.128
138.400;0.128
138.450;0.128
138.500;0.127
138.550;0.126
138.600;0.126
138.650;0.126
138.700;0.126
138.750;0.126
138.800;0.126
138.850;0.126
138.900;0.126
138.950;0.125
139.000;0.125
139.050;0.125
139.100;0.125
139.150;0.125
139.200;0.125
139.250;0.124
139.300;0.124
139.350;0.124
139.400;0.123
139.450;0.123
139.500;0.123
139.550;0.124
139.600;0.124
139.650;0.123
139.700;0.123
139.750;0.122
139.800;0.122
139.850;0.122
139.900;0.122
139.950;0.122
140.000;0.122
140.050;0.121
140.100;0.121
140.150;0.121
140.200;0.120
140.250;0.120
140.300;0.120
140.350;0.121
140.400;0.121
140.450;0.120
140.500;0.120
140.550;0.119
140.600;0.120
140.650;0.119
140.700;0.119
140.750;0.119
140.800;0.119
140.850;0.119
140.900;0.118
140.950;0.118
141.000;0.118
141.050;0.118
141.100;0.118
141.150;0.118
141.200;0.118
141.250;0.117
141.300;0.117
141.350;0.116
141.400;0.117
141.450;0.116
141.500;0.116
141.550;0.116
141.600;0.116
141.650;0.116
141.700;0.115
141.750;0.114
141.800;0.114
141.850;0.114
141.900;0.114
141.950;0.114
142.000;0.114
142.050;0.113
142.100;0.113
142.150;0.112
142.200;0.112
142.250;0.112
142.300;0.113
142.350;0.113
142.400;0.113
142.450;0.112
142.500;0.111
142.550;0.111
142.600;0.111
142.650;0.110
142.700;0.110
142.750;0.110
142.800;0.111
142.850;0.110
142.900;0.110
142.950;0.109
143.000;0.110
143.050;0.109
143.100;0.110
143.150;0.109
143.200;0.109
143.250;0.109
143.300;0.109
143.350;0.108
143.400;0.108
143.450;0.108
143.500;0.108
143.550;0.108
143.600;0.108
143.650;0.108
143.700;0.107
143.750;0.107
143.800;0.106
143.850;0.106
143.900;0.106
143.950;0.106
144.000;0.107
144.050;0.106
144.100;0.106
144.150;0.105
144.200;0.104
144.250;0.105
144.300;0.105
144.350;0.105
144.400;0.104
144.450;0.104
144.500;0.104
144.550;0.103
144.600;0.103
144.650;0.104
144.700;0.104
144.750;0.103
144.800;0.104
144.850;0.103
144.900;0.103
144.950;0.103
145.000;0.102
145.050;0.102
145.100;0.102
145.150;0.103
145.200;0.103
145.250;0.102
145.300;0.102
145.350;0.102
145.400;0.102
145.450;0.101
145.500;0.101
145.550;0.101
145.600;0.101
145.650;0.102
145.700;0.101
145.750;0.101
145.800;0.100
145.850;0.100
145.900;0.100
145.950;0.100
146.000;0.100
146.050;0.100
146.100;0.100
146.150;0.099
146.200;0.099
146.250;0.099
146.300;0.099
146.350;0.099
146.400;0.099
146.450;0.099
146.500;0.098
146.550;0.098
146.600;0.098
146.650;0.097
146.700;0.097
146.750;0.097
146.800;0.098
146.850;0.098
146.900;0.097
146.950;0.097
147.000;0.097
147.050;0.096
147.100;0.096
147.150;0.096
147.200;0.096
147.250;0.097
147.300;0.096
147.350;0.096
147.400;0.095
147.450;0.096
147.500;0.095
147.550;0.095
147.600;0.095
147.650;0.095
147.700;0.095
147.750;0.094
147.800;0.094
147.850;0.094
147.900;0.095
147.950;0.094
148.000;0.094
148.050;0.094
148.100;0.094
148.150;0.094
148.200;0.093
148.250;0.094
148.300;0.094
148.350;0.093
148.400;0.093
148.450;0.093
148.500;0.093
148.550;0.092
148.600;0.092
148.650;0.093
148.700;0.093
148.750;0.092
148.800;0.092
148.850;0.092
148.900;0.092
148.950;0.091
149.000;0.091
149.050;0.091
149.100;0.091
149.150;0.091
149.200;0.090
149.250;0.090
149.300;0.090
149.350;0.089
149.400;0.090
149.450;0.089
149.500;0.090
149.550;0.089
149.600;0.090
149.650;0.089
149.700;0.089
149.750;0.088
149.800;0.089
149.850;0.089
149.900;0.088
149.950;0.088
150.000;0.089
150.050;0.088
150.100;0.088
150.150;0.088
150.200;0.087
150.250;0.087
150.300;0.087
150.350;0.087
150.400;0.088
150.450;0.088
150.500;0.087
150.550;0.087
150.600;0.087
150.650;0.087
150.700;0.087
150.750;0.086
150.800;0.087
150.850;0.087
150.900;0.087
150.950;0.087
151.000;0.086
151.050;0.086
151.100;0.086
151.150;0.086
151.200;0.086
151.250;0.086
151.300;0.086
151.350;0.086
151.400;0.085
151.450;0.085
151.500;0.085
151.550;0.085
151.600;0.085
151.650;0.085
151.700;0.085
151.750;0.084
151.800;0.084
151.850;0.084
151.900;0.084
151.950;0.083
152.000;0.084
152.050;0.083
152.100;0.083
152.150;0.083
152.200;0.082
152.250;0.082
152.300;0.082
152.350;0.082
152.400;0.082
152.450;0.083
152.500;0.083
152.550;0.082
152.600;0.082
152.650;0.082
152.700;0.081
152.750;0.080
152.800;0.081
152.850;0.080
152.900;0.080
152.950;0.080
153.000;0.080
153.050;0.079
153.100;0.079
153.150;0.079
153.200;0.080
153.250;0.080
153.300;0.080
153.350;0.079
153.400;0.079
153.450;0.078
153.500;0.079
153.550;0.079
153.600;0.079
153.650;0.078
153.700;0.078
153.750;0.078
153.800;0.078
153.850;0.077
153.900;0.078
153.950;0.078
154.000;0.078
154.050;0.078
154.100;0.078
154.150;0.077
154.200;0.077
154.250;0.076
154.300;0.077
154.350;0.077
154.400;0.077
154.450;0.077
154.500;0.077
154.550;0.076
154.600;0.076
154.650;0.076
154.700;0.076
154.750;0.075
154.800;0.076
154.850;0.076
154.900;0.075
154.950;0.074
155.000;0.074
155.050;0.074
155.100;0.075
155.150;0.075
155.200;0.074
155.250;0.075
155.300;0.074
155.350;0.073
155.400;0.073
155.450;0.073
155.500;0.073
155.550;0.073
155.600;0.074
155.650;0.074
155.700;0.074
155.750;0.073
155.800;0.072
155.850;0.072
155.900;0.072
155.950;0.072
156.000;0.073
156.050;0.072
156.100;0.072
156.150;0.072
156.200;0.071
156.250;0.071
156.300;0.071
156.350;0.071
156.400;0.071
156.450;0.071
156.500;0.071
156.550;0.071
156.600;0.070
156.650;0.070
156.700;0.071
156.750;0.070
156.800;0.070
156.850;0.070
156.900;0.071
156.950;0.069
157.000;0.069
157.050;0.069
157.100;0.069
157.150;0.069
157.200;0.069
157.250;0.069
157.300;0.069
157.350;0.069
157.400;0.068
157.450;0.068
157.500;0.068
157.550;0.068
157.600;0.069
157.650;0.068
157.700;0.068
157.750;0.068
157.800;0.067
157.850;0.067
157.900;0.067
157.950;0.067
158.000;0.067
158.050;0.067
158.100;0.068
158.150;0.067
158.200;0.066
158.250;0.066
158.300;0.066
158.350;0.066
158.400;0.066
158.450;0.066
158.500;0.066
158.550;0.066
158.600;0.065
158.650;0.065
158.700;0.066
158.750;0.066
158.800;0.066
158.850;0.066
158.900;0.066
158.950;0.065
159.000;0.065
159.050;0.065
159.100;0.065
159.150;0.064
159.200;0.065
159.250;0.065
159.300;0.065
159.350;0.065
159.400;0.064
159.450;0.064
159.500;0.064
159.550;0.064
159.600;0.064
159.650;0.064
159.700;0.063
159.750;0.063
159.800;0.063
159.850;0.063
159.900;0.063
159.950;0.063
160.000;0.063
160.050;0.063
160.100;0.063
160.150;0.063
160.200;0.063
160.250;0.062
160.300;0.063
160.350;0.062
160.400;0.062
160.450;0.062
160.500;0.062
160.550;0.062
160.600;0.062
160.650;0.062
160.700;0.062
160.750;0.062
160.800;0.062
160.850;0.062
160.900;0.062
160.950;0.061
161.000;0.061
161.050;0.062
161.100;0.061
161.150;0.061
161.200;0.061
161.250;0.061
161.300;0.061
161.350;0.061
161.400;0.060
161.450;0.061
161.500;0.061
161.550;0.060
161.600;0.061
161.650;0.061
161.700;0.061
161.750;0.060
161.800;0.060
161.850;0.059
161.900;0.060
161.950;0.059
162.000;0.059
162.050;0.060
162.100;0.059
162.150;0.059
162.200;0.059
162.250;0.059
162.300;0.059
162.350;0.059
162.400;0.059
162.450;0.059
162.500;0.059
162.550;0.058
162.600;0.058
162.650;0.058
162.700;0.058
162.750;0.058
162.800;0.058
162.850;0.059
162.900;0.059
162.950;0.058
163.000;0.058
163.050;0.057
163.100;0.058
163.150;0.057
163.200;0.058
163.250;0.058
163.300;0.058
163.350;0.057
163.400;0.057
163.450;0.057
163.500;0.056
163.550;0.056
163.600;0.057
163.650;0.057
163.700;0.057
163.750;0.057
163.800;0.056
163.850;0.056
163.900;0.056
163.950;0.056
164.000;0.056
164.050;0.056
164.100;0.056
164.150;0.055
164.200;0.055
164.250;0.055
164.300;0.055
164.350;0.055
164.400;0.056
164.450;0.056
164.500;0.056
164.550;0.055
164.600;0.055
164.650;0.055
164.700;0.055
164.750;0.055
164.800;0.055
164.850;0.055
164.900;0.055
164.950;0.054
165.000;0.054
165.050;0.054
165.100;0.054
165.150;0.054
165.200;0.054
165.250;0.055
165.300;0.055
165.350;0.053
165.400;0.054
165.450;0.053
165.500;0.054
165.550;0.054
165.600;0.054
165.650;0.054
165.700;0.054
165.750;0.054
165.800;0.053
165.850;0.053
165.900;0.053
165.950;0.053
166.000;0.053
166.050;0.053
166.100;0.053
166.150;0.053
166.200;0.053
166.250;0.053
166.300;0.053
166.350;0.053
166.400;0.053
166.450;0.053
166.500;0.052
166.550;0.052
166.600;0.051
166.650;0.051
166.700;0.051
166.750;0.052
166.800;0.052
166.850;0.052
166.900;0.051
166.950;0.051
167.000;0.050
167.050;0.050
167.100;0.050
167.150;0.050
167.200;0.051
167.250;0.051
167.300;0.051
167.350;0.050
167.400;0.050
167.450;0.050
167.500;0.050
167.550;0.050
167.600;0.050
167.650;0.050
167.700;0.050
167.750;0.050
167.800;0.050
167.850;0.049
167.900;0.049
167.950;0.049
168.000;0.049
168.050;0.050
168.100;0.050
168.150;0.049
168.200;0.049
168.250;0.049
168.300;0.049
168.350;0.049
168.400;0.049
168.450;0.049
168.500;0.049
168.550;0.048
168.600;0.049
168.650;0.048
168.700;0.048
168.750;0.048
168.800;0.048
168.850;0.048
168.900;0.048
168.950;0.048
169.000;0.048
169.050;0.047
169.100;0.047
169.150;0.047
169.200;0.048
169.250;0.048
169.300;0.048
169.350;0.047
169.400;0.046
169.450;0.046
169.500;0.047
169.550;0.047
169.600;0.047
169.650;0.047
169.700;0.047
169.750;0.047
169.800;0.047
169.850;0.046
169.900;0.046
169.950;0.046
170.000;0.046
170.050;0.047
170.100;0.047
170.150;0.046
170.200;0.045
170.250;0.046
170.300;0.046
170.350;0.046
170.400;0.046
170.450;0.046
170.500;0.046
170.550;0.046
170.600;0.045
170.650;0.045
170.700;0.045
170.750;0.045
170.800;0.045
170.850;0.045
170.900;0.045
170.950;0.045
171.000;0.044
171.050;0.044
171.100;0.044
171.150;0.045
171.200;0.044
171.250;0.045
171.300;0.045
171.350;0.044
171.400;0.044
171.450;0.043
171.500;0.044
171.550;0.044
171.600;0.044
171.650;0.044
171.700;0.044
171.750;0.043
171.800;0.043
171.850;0.043
171.900;0.043
171.950;0.043
172.000;0.044
172.050;0.043
172.100;0.043
172.150;0.043
172.200;0.042
172.250;0.042
172.300;0.042
172.350;0.042
172.400;0.042
172.450;0.043
172.500;0.043
172.550;0.042
172.600;0.042
172.650;0.042
172.700;0.042
172.750;0.042
172.800;0.042
172.850;0.043
172.900;0.043
172.950;0.042
173.000;0.042
173.050;0.042
173.100;0.042
173.150;0.042
173.200;0.042
173.250;0.043
173.300;0.043
173.350;0.041
173.400;0.041
173.450;0.041
173.500;0.041
173.550;0.042
173.600;0.042
173.650;0.041
173.700;0.042
173.750;0.041
173.800;0.041
173.850;0.041
173.900;0.041
173.950;0.041
174.000;0.041
174.050;0.041
174.100;0.041
174.150;0.041
174.200;0.040
174.250;0.040
174.300;0.041
174.350;0.041
174.400;0.041
174.450;0.041
174.500;0.041
174.550;0.040
174.600;0.040
174.650;0.040
174.700;0.040
174.750;0.040
174.800;0.040
174.850;0.040
174.900;0.040
174.950;0.039
175.000;0.039
175.050;0.039
175.100;0.039
175.150;0.040
175.200;0.040
175.250;0.040
175.300;0.039
175.350;0.039
175.400;0.039
175.450;0.039
175.500;0.039
175.550;0.039
175.600;0.039
175.650;0.039
175.700;0.039
175.750;0.038
175.800;0.039
175.850;0.039
175.900;0.039
175.950;0.039
176.000;0.039
176.050;0.039
176.100;0.039
176.150;0.038
176.200;0.038
176.250;0.038
176.300;0.038
176.350;0.038
176.400;0.039
176.450;0.039
176.500;0.039
176.550;0.038
176.600;0.038
176.650;0.038
176.700;0.038
176.750;0.038
176.800;0.038
176.850;0.038
176.900;0.038
176.950;0.038
177.000;0.037
177.050;0.038
177.100;0.038
177.150;0.038
177.200;0.038
177.250;0.038
177.300;0.038
177.350;0.037
177.400;0.037
177.450;0.037
177.500;0.037
177.550;0.037
177.600;0.037
177.650;0.038
177.700;0.037
177.750;0.037
177.800;0.036
177.850;0.036
177.900;0.036
177.950;0.036
178.000;0.037
178.050;0.037
178.100;0.037
178.150;0.036
178.200;0.036
178.250;0.036
178.300;0.036
178.350;0.036
178.400;0.036
178.450;0.036
178.500;0.036
178.550;0.036
178.600;0.035
178.650;0.035
178.700;0.035
178.750;0.036
178.800;0.037
178.850;0.036
178.900;0.036
178.950;0.036
179.000;0.035
179.050;0.035
179.100;0.035
179.150;0.035
179.200;0.035
179.250;0.035
179.300;0.035
179.350;0.034
179.400;0.034
179.450;0.035
179.500;0.034
179.550;0.034
179.600;0.035
179.650;0.035
179.700;0.035
179.750;0.034
179.800;0.034
179.850;0.034
179.900;0.034
179.950;0.034
180.000;0.035
180.050;0.034
180.100;0.034
180.150;0.034
180.200;0.034
180.250;0.034
180.300;0.033
180.350;0.034
180.400;0.034
180.450;0.034
180.500;0.034
180.550;0.034
180.600;0.034
180.650;0.033
180.700;0.033
180.750;0.034
180.800;0.034
180.850;0.034
180.900;0.034
180.950;0.033
181.000;0.033
181.050;0.033
181.100;0.033
181.150;0.033
181.200;0.033
181.250;0.033
181.300;0.033
181.350;0.033
181.400;0.032
181.450;0.033
181.500;0.033
181.550;0.033
181.600;0.033
181.650;0.033
181.700;0.033
181.750;0.033
181.800;0.033
181.850;0.032
181.900;0.032
181.950;0.033
182.000;0.033
182.050;0.033
182.100;0.032
182.150;0.032
182.200;0.032
182.250;0.032
182.300;0.032
182.350;0.032
182.400;0.033
182.450;0.032
182.500;0.032
182.550;0.032
182.600;0.032
182.650;0.032
182.700;0.031
182.750;0.032
182.800;0.032
182.850;0.032
182.900;0.032
182.950;0.031
183.000;0.031
183.050;0.031
183.100;0.031
183.150;0.031
183.200;0.032
183.250;0.031
183.300;0.031
183.350;0.031
183.400;0.031
183.450;0.031
183.500;0.031
183.550;0.031
183.600;0.031
183.650;0.031
183.700;0.031
183.750;0.031
183.800;0.031
183.850;0.030
183.900;0.031
183.950;0.031
184.000;0.031
184.050;0.031
184.100;0.031
184.150;0.031
184.200;0.030
184.250;0.031
184.300;0.031
184.350;0.030
184.400;0.031
184.450;0.031
184.500;0.031
184.550;0.029
184.600;0.030
184.650;0.030
184.700;0.030
184.750;0.030
184.800;0.030
184.850;0.030
184.900;0.030
184.950;0.029
185.000;0.030
185.050;0.029
185.100;0.030
185.150;0.030
185.200;0.030
185.250;0.030
185.300;0.030
185.350;0.029
185.400;0.029
185.450;0.030
185.500;0.030
185.550;0.030
185.600;0.030
185.650;0.030
185.700;0.029
185.750;0.028
185.800;0.029
185.850;0.029
185.900;0.029
185.950;0.029
186.000;0.030
186.050;0.029
186.100;0.029
186.150;0.028
186.200;0.028
186.250;0.028
186.300;0.028
186.350;0.029
186.400;0.029
186.450;0.028
186.500;0.027
186.550;0.027
186.600;0.028
186.650;0.027
186.700;0.027
186.750;0.028
186.800;0.028
186.850;0.027
186.900;0.027
186.950;0.027
187.000;0.027
187.050;0.027
187.100;0.027
187.150;0.028
187.200;0.028
187.250;0.027
187.300;0.027
187.350;0.027
187.400;0.027
187.450;0.027
187.500;0.028
187.550;0.028
187.600;0.027
187.650;0.027
187.700;0.026
187.750;0.026
187.800;0.026
187.850;0.027
187.900;0.026
187.950;0.027
188.000;0.027
188.050;0.027
188.100;0.026
188.150;0.026
188.200;0.026
188.250;0.027
188.300;0.027
188.350;0.027
188.400;0.027
188.450;0.026
188.500;0.026
188.550;0.026
188.600;0.026
188.650;0.027
188.700;0.026
188.750;0.026
188.800;0.026
188.850;0.027
188.900;0.026
188.950;0.026
189.000;0.026
189.050;0.026
189.100;0.026
189.150;0.026
189.200;0.026
189.250;0.026
189.300;0.025
189.350;0.025
189.400;0.025
189.450;0.025
189.500;0.025
189.550;0.026
189.600;0.026
189.650;0.025
189.700;0.025
189.750;0.025
189.800;0.025
189.850;0.025
189.900;0.026
189.950;0.026
190.000;0.025
190.050;0.025
190.100;0.025
190.150;0.025
190.200;0.025
190.250;0.025
190.300;0.025
190.350;0.026
190.400;0.025
190.450;0.026
190.500;0.025
190.550;0.024
190.600;0.025
190.650;0.025
190.700;0.025
190.750;0.025
190.800;0.025
190.850;0.024
190.900;0.024
190.950;0.024
191.000;0.025
191.050;0.025
191.100;0.025
191.150;0.026
191.200;0.025
191.250;0.025
191.300;0.024
191.350;0.024
191.400;0.024
191.450;0.024
191.500;0.024
191.550;0.025
191.600;0.024
191.650;0.024
191.700;0.024
191.750;0.024
191.800;0.024
191.850;0.024
191.900;0.024
191.950;0.024
192.000;0.025
192.050;0.024
192.100;0.024
192.150;0.024
192.200;0.024
192.250;0.024
192.300;0.024
192.350;0.024
192.400;0.024
192.450;0.024
192.500;0.023
192.550;0.023
192.600;0.023
192.650;0.024
192.700;0.024
192.750;0.024
192.800;0.024
192.850;0.024
192.900;0.024
192.950;0.024
193.000;0.024
193.050;0.024
193.100;0.024
193.150;0.024
193.200;0.024
193.250;0.023
193.300;0.023
193.350;0.023
193.400;0.023
193.450;0.023
193.500;0.023
193.550;0.024
193.600;0.023
193.650;0.023
193.700;0.022
193.750;0.023
193.800;0.023
193.850;0.023
193.900;0.023
193.950;0.024
194.000;0.024
194.050;0.024
194.100;0.023
194.150;0.023
194.200;0.023
194.250;0.023
194.300;0.023
194.350;0.023
194.400;0.023
194.450;0.023
194.500;0.022
194.550;0.023
194.600;0.022
194.650;0.022
194.700;0.022
194.750;0.022
194.800;0.022
194.850;0.022
194.900;0.022
194.950;0.022
195.000;0.022
195.050;0.022
195.100;0.022
195.150;0.022
195.200;0.022
195.250;0.022
195.300;0.021
195.350;0.021
195.400;0.021
195.450;0.021
195.500;0.022
195.550;0.022
195.600;0.022
195.650;0.021
195.700;0.021
195.750;0.021
195.800;0.021
195.850;0.021
195.900;0.022
195.950;0.022
196.000;0.022
196.050;0.021
196.100;0.021
196.150;0.021
196.200;0.020
196.250;0.021
196.300;0.021
196.350;0.021
196.400;0.021
196.450;0.021
196.500;0.020
196.550;0.021
196.600;0.020
196.650;0.021
196.700;0.021
196.750;0.021
196.800;0.021
196.850;0.020
196.900;0.021
196.950;0.021
197.000;0.020
197.050;0.021
197.100;0.021
197.150;0.021
197.200;0.021
197.250;0.020
197.300;0.020
197.350;0.020
197.400;0.020
197.450;0.020
197.500;0.021
197.550;0.020
197.600;0.020
197.650;0.020
197.700;0.020
197.750;0.020
197.800;0.020
197.850;0.020
197.900;0.020
197.950;0.020
198.000;0.020
198.050;0.020
198.100;0.020
198.150;0.020
198.200;0.020
198.250;0.020
198.300;0.020
198.350;0.021
198.400;0.020
198.450;0.020
198.500;0.020
198.550;0.020
198.600;0.020
198.650;0.020
198.700;0.021
198.750;0.021
198.800;0.020
198.850;0.020
198.900;0.020
198.950;0.020
199.000;0.019
199.050;0.020
199.100;0.020
199.150;0.020
199.200;0.020
199.250;0.019
199.300;0.020
199.350;0.020
199.400;0.020
199.450;0.020
199.500;0.020
199.550;0.020
199.600;0.019
199.650;0.019
199.700;0.019
199.750;0.019
199.800;0.020
199.850;0.019
199.900;0.019
199.950;0.019
200.000;0.019
200.050;0.019
200.100;0.019
200.150;0.018
200.200;0.019
200.250;0.019
200.300;0.019
200.350;0.019
200.400;0.018
200.450;0.018
200.500;0.018
200.550;0.018
200.600;0.019
200.650;0.019
200.700;0.019
200.750;0.019
200.800;0.019
200.850;0.018
200.900;0.018
200.950;0.018
201.000;0.019
201.050;0.019
201.100;0.019
201.150;0.019
201.200;0.018
201.250;0.018
201.300;0.018
201.350;0.018
201.400;0.018
201.450;0.019
201.500;0.019
201.550;0.019
201.600;0.019
201.650;0.018
201.700;0.018
201.750;0.018
201.800;0.018
201.850;0.018
201.900;0.019
201.950;0.018
202.000;0.018
202.050;0.017
202.100;0.018
202.150;0.018
202.200;0.018
202.250;0.018
202.300;0.018
202.350;0.017
202.400;0.017
202.450;0.017
202.500;0.017
202.550;0.017
202.600;0.018
202.650;0.018
202.700;0.018
202.750;0.018
202.800;0.018
202.850;0.018
202.900;0.018
202.950;0.017
203.000;0.017
203.050;0.018
203.100;0.017
203.150;0.017
203.200;0.018
203.250;0.017
203.300;0.017
203.350;0.017
203.400;0.017
203.450;0.017
