"Czas (s)";"Napięcie (V)"
0.000;11.558
0.050;11.521
0.100;11.481
0.150;11.442
0.200;11.405
0.250;11.366
0.300;11.329
0.350;11.292
0.400;11.255
0.450;11.217
0.500;11.180
0.550;11.145
0.600;11.108
0.650;11.071
0.700;11.036
0.750;10.997
0.800;10.959
0.850;10.923
0.900;10.887
0.950;10.851
1.000;10.816
1.050;10.781
1.100;10.744
1.150;10.709
1.200;10.674
1.250;10.639
1.300;10.604
1.350;10.571
1.400;10.536
1.450;10.500
1.500;10.462
1.550;10.427
1.600;10.392
1.650;10.358
1.700;10.324
1.750;10.291
1.800;10.257
1.850;10.223
1.900;10.189
1.950;10.157
2.000;10.122
2.050;10.089
2.100;10.056
2.150;10.023
2.200;9.988
2.250;9.953
2.300;9.922
2.350;9.888
2.400;9.857
2.450;9.824
2.500;9.792
2.550;9.760
2.600;9.727
2.650;9.694
2.700;9.664
2.750;9.631
2.800;9.600
2.850;9.569
2.900;9.537
2.950;9.504
3.000;9.472
3.050;9.441
3.100;9.410
3.150;9.379
3.200;9.348
3.250;9.317
3.300;9.287
3.350;9.255
3.400;9.224
3.450;9.195
3.500;9.164
3.550;9.135
3.600;9.105
3.650;9.075
3.700;9.045
3.750;9.013
3.800;8.982
3.850;8.954
3.900;8.923
3.950;8.893
4.000;8.866
4.050;8.837
4.100;8.807
4.150;8.777
4.200;8.748
4.250;8.721
4.300;8.692
4.350;8.663
4.400;8.635
4.450;8.606
4.500;8.579
4.550;8.549
4.600;8.519
4.650;8.490
4.700;8.463
4.750;8.435
4.800;8.408
4.850;8.380
4.900;8.352
4.950;8.324
5.000;8.296
5.050;8.269
5.100;8.242
5.150;8.216
5.200;8.188
5.250;8.161
5.300;8.135
5.350;8.108
5.400;8.081
5.450;8.052
5.500;8.025
5.550;7.999
5.600;7.975
5.650;7.947
5.700;7.920
5.750;7.895
5.800;7.868
5.850;7.842
5.900;7.817
5.950;7.792
6.000;7.765
6.050;7.739
6.100;7.714
6.150;7.688
6.200;7.664
6.250;7.639
6.300;7.614
6.350;7.589
6.400;7.562
6.450;7.536
6.500;7.511
6.550;7.487
6.600;7.461
6.650;7.437
6.700;7.414
6.750;7.389
6.800;7.365
6.850;7.340
6.900;7.315
6.950;7.291
7.000;7.266
7.050;7.244
7.100;7.221
7.150;7.196
7.200;7.173
7.250;7.149
7.300;7.126
7.350;7.102
7.400;7.077
7.450;7.053
7.500;7.030
7.550;7.007
7.600;6.983
7.650;6.960
7.700;6.937
7.750;6.915
7.800;6.892
7.850;6.869
7.900;6.845
7.950;6.823
8.000;6.802
8.050;6.778
8.100;6.758
8.150;6.735
8.200;6.712
8.250;6.690
8.300;6.669
8.350;6.647
8.400;6.625
8.450;6.602
8.500;6.579
8.550;6.557
8.600;6.536
8.650;6.514
8.700;6.492
8.750;6.469
8.800;6.449
8.850;6.428
8.900;6.407
8.950;6.386
9.000;6.366
9.050;6.344
9.100;6.322
9.150;6.301
9.200;6.281
9.250;6.260
9.300;6.240
9.350;6.219
9.400;6.200
9.450;6.179
9.500;6.158
9.550;6.138
9.600;6.117
9.650;6.096
9.700;6.077
9.750;6.055
9.800;6.036
9.850;6.015
9.900;5.995
9.950;5.975
10.000;5.957
10.050;5.937
10.100;5.917
10.150;5.897
10.200;5.877
10.250;5.858
10.300;5.839
10.350;5.820
10.400;5.800
10.450;5.783
10.500;5.764
10.550;5.745
10.600;5.725
10.650;5.707
10.700;5.688
10.750;5.669
10.800;5.651
10.850;5.631
10.900;5.612
10.950;5.593
11.000;5.574
11.050;5.555
11.100;5.538
11.150;5.519
11.200;5.501
11.250;5.483
11.300;5.465
11.350;5.447
11.400;5.428
11.450;5.410
11.500;5.392
11.550;5.375
11.600;5.358
11.650;5.341
11.700;5.322
11.750;5.305
11.800;5.287
11.850;5.270
11.900;5.252
11.950;5.235
12.000;5.219
12.050;5.202
12.100;5.184
12.150;5.167
12.200;5.150
12.250;5.132
12.300;5.115
12.350;5.099
12.400;5.081
12.450;5.064
12.500;5.047
12.550;5.030
12.600;5.013
12.650;4.997
12.700;4.981
12.750;4.966
12.800;4.948
12.850;4.932
12.900;4.915
12.950;4.898
13.000;4.882
13.050;4.866
13.100;4.851
13.150;4.835
13.200;4.820
13.250;4.803
13.300;4.788
13.350;4.772
13.400;4.756
13.450;4.740
13.500;4.726
13.550;4.710
13.600;4.695
13.650;4.679
13.700;4.664
13.750;4.647
13.800;4.631
13.850;4.616
13.900;4.601
13.950;4.585
14.000;4.570
14.050;4.555
14.100;4.540
14.150;4.523
14.200;4.510
14.250;4.494
14.300;4.481
14.350;4.465
14.400;4.451
14.450;4.435
14.500;4.422
14.550;4.407
14.600;4.393
14.650;4.378
14.700;4.364
14.750;4.349
14.800;4.334
14.850;4.320
14.900;4.307
14.950;4.293
15.000;4.278
15.050;4.265
15.100;4.250
15.150;4.237
15.200;4.222
15.250;4.208
15.300;4.195
15.350;4.181
15.400;4.168
15.450;4.152
15.500;4.138
15.550;4.125
15.600;4.110
15.650;4.096
15.700;4.083
15.750;4.070
15.800;4.058
15.850;4.043
15.900;4.030
15.950;4.016
16.000;4.003
16.050;3.990
16.100;3.976
16.150;3.964
16.200;3.952
16.250;3.938
16.300;3.925
16.350;3.911
16.400;3.899
16.450;3.885
16.500;3.874
16.550;3.861
16.600;3.847
16.650;3.835
16.700;3.823
16.750;3.810
16.800;3.798
16.850;3.786
16.900;3.774
16.950;3.761
17.000;3.750
17.050;3.736
17.100;3.723
17.150;3.712
17.200;3.699
17.250;3.688
17.300;3.675
17.350;3.662
17.400;3.649
17.450;3.637
17.500;3.625
17.550;3.613
17.600;3.601
17.650;3.590
17.700;3.579
17.750;3.566
17.800;3.553
17.850;3.542
17.900;3.530
17.950;3.518
18.000;3.508
18.050;3.496
18.100;3.484
18.150;3.473
18.200;3.461
18.250;3.449
18.300;3.438
18.350;3.426
18.400;3.415
18.450;3.404
18.500;3.393
18.550;3.382
18.600;3.369
18.650;3.359
18.700;3.349
18.750;3.337
18.800;3.328
18.850;3.317
18.900;3.305
18.950;3.295
19.000;3.283
19.050;3.273
19.100;3.263
19.150;3.251
19.200;3.241
19.250;3.231
19.300;3.219
19.350;3.209
19.400;3.198
19.450;3.186
19.500;3.175
19.550;3.165
19.600;3.155
19.650;3.145
19.700;3.133
19.750;3.123
19.800;3.112
19.850;3.103
19.900;3.093
19.950;3.083
20.000;3.073
20.050;3.061
20.100;3.051
20.150;3.041
20.200;3.031
20.250;3.022
20.300;3.013
20.350;3.002
20.400;2.992
20.450;2.982
20.500;2.972
20.550;2.962
20.600;2.953
20.650;2.942
20.700;2.933
20.750;2.924
20.800;2.914
20.850;2.904
20.900;2.896
20.950;2.885
21.000;2.875
21.050;2.866
21.100;2.857
21.150;2.848
21.200;2.839
21.250;2.829
21.300;2.819
21.350;2.810
21.400;2.801
21.450;2.792
21.500;2.783
21.550;2.774
21.600;2.765
21.650;2.755
21.700;2.747
21.750;2.738
21.800;2.729
21.850;2.721
21.900;2.712
21.950;2.701
22.000;2.692
22.050;2.682
22.100;2.673
22.150;2.664
22.200;2.657
22.250;2.647
22.300;2.638
22.350;2.629
22.400;2.621
22.450;2.613
22.500;2.604
22.550;2.595
22.600;2.587
22.650;2.577
22.700;2.568
22.750;2.560
22.800;2.552
22.850;2.543
22.900;2.536
22.950;2.527
23.000;2.520
23.050;2.510
23.100;2.502
23.150;2.494
23.200;2.485
23.250;2.477
23.300;2.470
23.350;2.461
23.400;2.453
23.450;2.445
23.500;2.437
23.550;2.428
23.600;2.420
23.650;2.413
23.700;2.405
23.750;2.397
23.800;2.388
23.850;2.380
23.900;2.373
23.950;2.365
24.000;2.357
24.050;2.350
24.100;2.343
24.150;2.335
24.200;2.326
24.250;2.318
24.300;2.312
24.350;2.303
24.400;2.297
24.450;2.290
24.500;2.283
24.550;2.275
24.600;2.267
24.650;2.260
24.700;2.253
24.750;2.245
24.800;2.237
24.850;2.231
24.900;2.225
24.950;2.215
25.000;2.207
25.050;2.198
25.100;2.192
25.150;2.184
25.200;2.177
25.250;2.171
25.300;2.164
25.350;2.155
25.400;2.148
25.450;2.140
25.500;2.134
25.550;2.127
25.600;2.120
25.650;2.113
25.700;2.106
25.750;2.098
25.800;2.091
25.850;2.084
25.900;2.078
25.950;2.071
26.000;2.064
26.050;2.057
26.100;2.051
26.150;2.044
26.200;2.038
26.250;2.031
26.300;2.023
26.350;2.017
26.400;2.011
26.450;2.004
26.500;1.997
26.550;1.991
26.600;1.985
26.650;1.977
26.700;1.970
26.750;1.965
26.800;1.958
26.850;1.952
26.900;1.946
26.950;1.939
27.000;1.933
27.050;1.927
27.100;1.921
27.150;1.914
27.200;1.907
27.250;1.901
27.300;1.895
27.350;1.889
27.400;1.884
27.450;1.876
27.500;1.871
27.550;1.865
27.600;1.860
27.650;1.852
27.700;1.846
27.750;1.839
27.800;1.834
27.850;1.828
27.900;1.822
27.950;1.815
28.000;1.810
28.050;1.805
28.100;1.799
28.150;1.793
28.200;1.787
28.250;1.781
28.300;1.775
28.350;1.769
28.400;1.764
28.450;1.758
28.500;1.752
28.550;1.746
28.600;1.742
28.650;1.736
28.700;1.729
28.750;1.722
28.800;1.717
28.850;1.711
28.900;1.705
28.950;1.699
29.000;1.693
29.050;1.688
29.100;1.683
29.150;1.677
29.200;1.670
29.250;1.664
29.300;1.659
29.350;1.654
29.400;1.649
29.450;1.644
29.500;1.638
29.550;1.632
29.600;1.627
29.650;1.622
29.700;1.617
29.750;1.611
29.800;1.606
29.850;1.600
29.900;1.594
29.950;1.589
30.000;1.585
30.050;1.579
30.100;1.574
30.150;1.569
30.200;1.564
30.250;1.559
30.300;1.554
30.350;1.549
30.400;1.544
30.450;1.538
30.500;1.533
30.550;1.529
30.600;1.523
30.650;1.518
30.700;1.514
30.750;1.508
30.800;1.503
30.850;1.499
30.900;1.494
30.950;1.489
31.000;1.484
31.050;1.478
31.100;1.473
31.150;1.468
31.200;1.464
31.250;1.459
31.300;1.454
31.350;1.450
31.400;1.444
31.450;1.440
31.500;1.436
31.550;1.431
31.600;1.426
31.650;1.421
31.700;1.416
31.750;1.412
31.800;1.407
31.850;1.403
31.900;1.398
31.950;1.393
32.000;1.389
32.050;1.384
32.100;1.380
32.150;1.375
32.200;1.371
32.250;1.366
32.300;1.362
32.350;1.357
32.400;1.352
32.450;1.348
32.500;1.344
32.550;1.340
32.600;1.335
32.650;1.330
32.700;1.326
32.750;1.322
32.800;1.319
32.850;1.314
32.900;1.311
32.950;1.305
33.000;1.301
33.050;1.296
33.100;1.292
33.150;1.287
33.200;1.284
33.250;1.280
33.300;1.276
33.350;1.272
33.400;1.266
33.450;1.263
33.500;1.259
33.550;1.255
33.600;1.251
33.650;1.248
33.700;1.242
33.750;1.238
33.800;1.233
33.850;1.229
33.900;1.224
33.950;1.221
34.000;1.216
34.050;1.211
34.100;1.208
34.150;1.203
34.200;1.200
34.250;1.196
34.300;1.193
34.350;1.189
34.400;1.184
34.450;1.180
34.500;1.176
34.550;1.172
34.600;1.168
34.650;1.164
34.700;1.162
34.750;1.158
34.800;1.154
34.850;1.150
34.900;1.146
34.950;1.142
35.000;1.138
35.050;1.135
35.100;1.131
35.150;1.128
35.200;1.123
35.250;1.119
35.300;1.115
35.350;1.112
35.400;1.108
35.450;1.105
35.500;1.102
35.550;1.099
35.600;1.095
35.650;1.091
35.700;1.087
35.750;1.083
35.800;1.080
35.850;1.077
35.900;1.074
35.950;1.070
36.000;1.067
36.050;1.063
36.100;1.060
36.150;1.056
36.200;1.052
36.250;1.048
36.300;1.044
36.350;1.041
36.400;1.038
36.450;1.035
36.500;1.032
36.550;1.029
36.600;1.026
36.650;1.021
36.700;1.018
36.750;1.013
36.800;1.011
36.850;1.007
36.900;1.004
36.950;1.001
37.000;0.997
37.050;0.994
37.100;0.990
37.150;0.987
37.200;0.985
37.250;0.982
37.300;0.978
37.350;0.975
37.400;0.972
37.450;0.968
37.500;0.965
37.550;0.961
37.600;0.959
37.650;0.956
37.700;0.953
37.750;0.951
37.800;0.948
37.850;0.943
37.900;0.940
37.950;0.937
38.000;0.934
38.050;0.931
38.100;0.928
38.150;0.925
38.200;0.921
38.250;0.918
38.300;0.916
38.350;0.913
38.400;0.910
38.450;0.907
38.500;0.904
38.550;0.901
38.600;0.897
38.650;0.895
38.700;0.892
38.750;0.889
38.800;0.887
38.850;0.884
38.900;0.881
38.950;0.879
39.000;0.875
39.050;0.872
39.100;0.869
39.150;0.866
39.200;0.863
39.250;0.861
39.300;0.858
39.350;0.855
39.400;0.853
39.450;0.849
39.500;0.846
39.550;0.843
39.600;0.840
39.650;0.838
39.700;0.835
39.750;0.832
39.800;0.830
39.850;0.827
39.900;0.825
39.950;0.823
40.000;0.820
40.050;0.817
40.100;0.814
40.150;0.812
40.200;0.809
40.250;0.806
40.300;0.803
40.350;0.801
40.400;0.799
40.450;0.796
40.500;0.793
40.550;0.791
40.600;0.788
40.650;0.786
40.700;0.784
40.750;0.780
40.800;0.778
40.850;0.775
40.900;0.773
40.950;0.770
41.000;0.768
41.050;0.766
41.100;0.763
41.150;0.761
41.200;0.758
41.250;0.755
41.300;0.753
41.350;0.749
41.400;0.747
41.450;0.744
41.500;0.742
41.550;0.739
41.600;0.736
41.650;0.733
41.700;0.731
41.750;0.729
41.800;0.726
41.850;0.724
41.900;0.722
41.950;0.720
42.000;0.717
42.050;0.714
42.100;0.713
42.150;0.710
42.200;0.708
42.250;0.706
42.300;0.704
42.350;0.700
42.400;0.698
42.450;0.695
42.500;0.693
42.550;0.691
42.600;0.688
42.650;0.686
42.700;0.684
42.750;0.681
42.800;0.679
42.850;0.676
42.900;0.675
42.950;0.673
43.000;0.671
43.050;0.669
43.100;0.667
43.150;0.663
43.200;0.662
43.250;0.660
43.300;0.658
43.350;0.656
43.400;0.654
43.450;0.651
43.500;0.649
43.550;0.646
43.600;0.644
43.650;0.643
43.700;0.641
43.750;0.639
43.800;0.637
43.850;0.635
43.900;0.631
43.950;0.629
44.000;0.628
44.050;0.626
44.100;0.624
44.150;0.622
44.200;0.620
44.250;0.617
44.300;0.615
44.350;0.613
44.400;0.611
44.450;0.609
44.500;0.608
44.550;0.606
44.600;0.604
44.650;0.601
44.700;0.599
44.750;0.597
44.800;0.595
44.850;0.593
44.900;0.592
44.950;0.590
45.000;0.588
45.050;0.586
45.100;0.584
45.150;0.582
45.200;0.581
45.250;0.579
45.300;0.577
45.350;0.576
45.400;0.573
45.450;0.571
45.500;0.570
45.550;0.568
45.600;0.566
45.650;0.564
45.700;0.562
45.750;0.559
45.800;0.557
45.850;0.555
45.900;0.554
45.950;0.552
46.000;0.550
46.050;0.550
46.100;0.548
46.150;0.546
46.200;0.544
46.250;0.542
46.300;0.540
46.350;0.538
46.400;0.537
46.450;0.535
46.500;0.533
46.550;0.530
46.600;0.528
46.650;0.527
46.700;0.526
46.750;0.525
46.800;0.523
46.850;0.521
46.900;0.519
46.950;0.518
47.000;0.516
47.050;0.514
47.100;0.513
47.150;0.511
47.200;0.510
47.250;0.507
47.300;0.505
47.350;0.504
47.400;0.502
47.450;0.500
47.500;0.499
47.550;0.498
47.600;0.495
47.650;0.494
47.700;0.492
47.750;0.491
47.800;0.489
47.850;0.487
47.900;0.487
47.950;0.485
48.000;0.483
48.050;0.481
48.100;0.479
48.150;0.478
48.200;0.476
48.250;0.475
48.300;0.474
48.350;0.472
48.400;0.470
48.450;0.469
48.500;0.467
48.550;0.466
48.600;0.465
48.650;0.463
48.700;0.462
48.750;0.460
48.800;0.458
48.850;0.457
48.900;0.455
48.950;0.454
49.000;0.452
49.050;0.451
49.100;0.449
49.150;0.447
49.200;0.446
49.250;0.444
49.300;0.443
49.350;0.441
49.400;0.440
49.450;0.439
49.500;0.438
49.550;0.436
49.600;0.434
49.650;0.433
49.700;0.432
49.750;0.430
49.800;0.430
49.850;0.428
49.900;0.426
49.950;0.425
50.000;0.424
50.050;0.422
50.100;0.421
50.150;0.420
50.200;0.419
50.250;0.417
50.300;0.416
50.350;0.414
50.400;0.412
50.450;0.411
50.500;0.410
50.550;0.409
50.600;0.408
50.650;0.406
50.700;0.404
50.750;0.403
50.800;0.402
50.850;0.401
50.900;0.400
50.950;0.399
51.000;0.398
51.050;0.396
51.100;0.394
51.150;0.393
51.200;0.392
51.250;0.390
51.300;0.390
51.350;0.388
51.400;0.387
51.450;0.385
51.500;0.384
51.550;0.383
51.600;0.381
51.650;0.380
51.700;0.379
51.750;0.378
51.800;0.376
51.850;0.375
51.900;0.374
51.950;0.372
52.000;0.372
52.050;0.370
52.100;0.369
52.150;0.368
52.200;0.367
52.250;0.365
52.300;0.364
52.350;0.363
52.400;0.362
52.450;0.361
52.500;0.360
52.550;0.358
52.600;0.357
52.650;0.355
52.700;0.354
52.750;0.353
52.800;0.353
52.850;0.352
52.900;0.350
52.950;0.349
53.000;0.348
53.050;0.346
53.100;0.345
53.150;0.345
53.200;0.344
53.250;0.343
53.300;0.342
53.350;0.340
53.400;0.340
53.450;0.339
53.500;0.338
53.550;0.337
53.600;0.337
53.650;0.335
53.700;0.334
53.750;0.332
53.800;0.331
53.850;0.330
53.900;0.329
53.950;0.328
54.000;0.327
54.050;0.326
54.100;0.325
54.150;0.323
54.200;0.322
54.250;0.320
54.300;0.320
54.350;0.320
54.400;0.318
54.450;0.317
54.500;0.316
54.550;0.315
54.600;0.314
54.650;0.313
54.700;0.312
54.750;0.311
54.800;0.310
54.850;0.309
54.900;0.308
54.950;0.307
55.000;0.306
55.050;0.306
55.100;0.305
55.150;0.304
55.200;0.303
55.250;0.302
55.300;0.300
55.350;0.299
55.400;0.299
55.450;0.298
55.500;0.298
55.550;0.297
55.600;0.296
55.650;0.294
55.700;0.293
55.750;0.292
55.800;0.292
55.850;0.291
55.900;0.290
55.950;0.288
56.000;0.287
56.050;0.286
56.100;0.285
56.150;0.284
56.200;0.284
56.250;0.283
56.300;0.283
56.350;0.281
56.400;0.280
56.450;0.280
56.500;0.279
56.550;0.278
56.600;0.277
56.650;0.276
56.700;0.275
56.750;0.274
56.800;0.273
56.850;0.273
56.900;0.272
56.950;0.271
57.000;0.270
57.050;0.269
57.100;0.268
57.150;0.267
57.200;0.267
57.250;0.265
57.300;0.265
57.350;0.264
57.400;0.263
57.450;0.262
57.500;0.261
57.550;0.259
57.600;0.259
57.650;0.258
57.700;0.257
57.750;0.256
57.800;0.255
57.850;0.254
57.900;0.252
57.950;0.252
58.000;0.251
58.050;0.251
58.100;0.250
58.150;0.249
58.200;0.249
58.250;0.247
58.300;0.246
58.350;0.246
58.400;0.245
58.450;0.244
58.500;0.244
58.550;0.243
58.600;0.242
58.650;0.241
58.700;0.240
58.750;0.239
58.800;0.239
58.850;0.238
58.900;0.237
58.950;0.236
59.000;0.235
59.050;0.234
59.100;0.234
59.150;0.233
59.200;0.232
59.250;0.232
59.300;0.231
59.350;0.230
59.400;0.229
59.450;0.228
59.500;0.228
59.550;0.227
59.600;0.227
59.650;0.226
59.700;0.225
59.750;0.224
59.800;0.223
59.850;0.222
59.900;0.222
59.950;0.221
60.000;0.221
60.050;0.220
60.100;0.219
60.150;0.218
60.200;0.217
60.250;0.217
60.300;0.216
60.350;0.216
60.400;0.215
60.450;0.214
60.500;0.213
60.550;0.212
60.600;0.212
60.650;0.211
60.700;0.211
60.750;0.210
60.800;0.209
60.850;0.208
60.900;0.208
60.950;0.206
61.000;0.206
61.050;0.205
61.100;0.205
61.150;0.204
61.200;0.204
61.250;0.202
61.300;0.201
61.350;0.201
61.400;0.201
61.450;0.200
61.500;0.199
61.550;0.198
61.600;0.197
61.650;0.197
61.700;0.196
61.750;0.195
61.800;0.195
61.850;0.195
61.900;0.194
61.950;0.193
62.000;0.193
62.050;0.191
62.100;0.192
62.150;0.190
62.200;0.190
62.250;0.190
62.300;0.189
62.350;0.188
62.400;0.188
62.450;0.187
62.500;0.187
62.550;0.186
62.600;0.186
62.650;0.186
62.700;0.184
62.750;0.183
62.800;0.182
62.850;0.182
62.900;0.181
62.950;0.181
63.000;0.181
63.050;0.181
63.100;0.180
63.150;0.179
63.200;0.178
63.250;0.178
63.300;0.178
63.350;0.177
63.400;0.177
63.450;0.176
63.500;0.175
63.550;0.174
63.600;0.174
63.650;0.173
63.700;0.173
63.750;0.173
63.800;0.173
63.850;0.172
63.900;0.170
63.950;0.170
64.000;0.170
64.050;0.169
64.100;0.168
64.150;0.168
64.200;0.168
64.250;0.167
64.300;0.166
64.350;0.165
64.400;0.165
64.450;0.165
64.500;0.164
64.550;0.164
64.600;0.163
64.650;0.162
64.700;0.161
64.750;0.161
64.800;0.161
64.850;0.160
64.900;0.161
64.950;0.160
65.000;0.158
65.050;0.158
65.100;0.157
65.150;0.157
65.200;0.156
65.250;0.156
65.300;0.156
65.350;0.155
65.400;0.155
65.450;0.154
65.500;0.153
65.550;0.153
65.600;0.153
65.650;0.152
65.700;0.152
65.750;0.151
65.800;0.149
65.850;0.149
65.900;0.149
65.950;0.149
66.000;0.148
66.050;0.148
66.100;0.147
66.150;0.146
66.200;0.146
66.250;0.145
66.300;0.146
66.350;0.145
66.400;0.144
66.450;0.144
66.500;0.143
66.550;0.143
66.600;0.142
66.650;0.141
66.700;0.141
66.750;0.141
66.800;0.141
66.850;0.140
66.900;0.139
66.950;0.139
67.000;0.139
67.050;0.138
67.100;0.138
67.150;0.137
67.200;0.137
67.250;0.136
67.300;0.135
67.350;0.134
67.400;0.134
67.450;0.134
67.500;0.134
67.550;0.133
67.600;0.133
67.650;0.132
67.700;0.132
67.750;0.131
67.800;0.131
67.850;0.131
67.900;0.130
67.950;0.130
68.000;0.129
68.050;0.129
68.100;0.129
68.150;0.128
68.200;0.128
68.250;0.128
68.300;0.127
68.350;0.127
68.400;0.126
68.450;0.126
68.500;0.126
68.550;0.125
68.600;0.125
68.650;0.125
68.700;0.124
68.750;0.124
68.800;0.123
68.850;0.123
68.900;0.122
68.950;0.122
69.000;0.122
69.050;0.122
69.100;0.121
69.150;0.120
69.200;0.120
69.250;0.120
69.300;0.120
69.350;0.120
69.400;0.120
69.450;0.118
69.500;0.118
69.550;0.117
69.600;0.117
69.650;0.117
69.700;0.117
69.750;0.117
69.800;0.117
69.850;0.115
69.900;0.114
69.950;0.113
70.000;0.113
70.050;0.113
70.100;0.112
70.150;0.112
70.200;0.112
70.250;0.111
70.300;0.111
70.350;0.110
70.400;0.110
70.450;0.110
70.500;0.110
70.550;0.110
70.600;0.109
70.650;0.109
70.700;0.108
70.750;0.108
70.800;0.108
70.850;0.107
70.900;0.108
70.950;0.107
71.000;0.107
71.050;0.106
71.100;0.105
71.150;0.105
71.200;0.105
71.250;0.105
71.300;0.105
71.350;0.104
71.400;0.104
71.450;0.103
71.500;0.103
71.550;0.103
71.600;0.103
71.650;0.103
71.700;0.102
71.750;0.102
71.800;0.102
71.850;0.101
71.900;0.100
71.950;0.101
72.000;0.101
72.050;0.101
72.100;0.101
72.150;0.100
72.200;0.099
72.250;0.099
72.300;0.098
72.350;0.098
72.400;0.098
72.450;0.098
72.500;0.097
72.550;0.097
72.600;0.096
72.650;0.097
72.700;0.096
72.750;0.096
72.800;0.096
72.850;0.096
72.900;0.095
72.950;0.095
73.000;0.094
73.050;0.095
73.100;0.094
73.150;0.094
73.200;0.094
73.250;0.094
73.300;0.093
73.350;0.093
73.400;0.093
73.450;0.092
73.500;0.092
73.550;0.092
73.600;0.092
73.650;0.091
73.700;0.091
73.750;0.090
73.800;0.090
73.850;0.090
73.900;0.090
73.950;0.090
74.000;0.089
74.050;0.089
74.100;0.088
74.150;0.088
74.200;0.088
74.250;0.087
74.300;0.087
74.350;0.087
74.400;0.087
74.450;0.087
74.500;0.086
74.550;0.086
74.600;0.086
74.650;0.086
74.700;0.086
74.750;0.085
74.800;0.085
74.850;0.084
74.900;0.084
74.950;0.083
75.000;0.084
75.050;0.084
75.100;0.084
75.150;0.083
75.200;0.083
75.250;0.082
75.300;0.082
75.350;0.082
75.400;0.082
75.450;0.081
75.500;0.080
75.550;0.079
75.600;0.079
75.650;0.079
75.700;0.079
75.750;0.079
75.800;0.079
75.850;0.079
75.900;0.078
75.950;0.078
76.000;0.077
76.050;0.077
76.100;0.077
76.150;0.077
76.200;0.077
76.250;0.076
76.300;0.075
76.350;0.075
76.400;0.075
76.450;0.075
76.500;0.075
76.550;0.075
76.600;0.074
76.650;0.073
76.700;0.073
76.750;0.073
76.800;0.073
76.850;0.073
76.900;0.073
76.950;0.073
77.000;0.072
77.050;0.071
77.100;0.071
77.150;0.071
77.200;0.071
77.250;0.071
77.300;0.071
77.350;0.071
77.400;0.071
77.450;0.071
77.500;0.070
77.550;0.069
77.600;0.070
77.650;0.071
77.700;0.070
77.750;0.069
77.800;0.069
77.850;0.068
77.900;0.068
77.950;0.068
78.000;0.068
78.050;0.068
78.100;0.068
78.150;0.067
78.200;0.067
78.250;0.066
78.300;0.066
78.350;0.066
78.400;0.066
78.450;0.066
78.500;0.066
78.550;0.065
78.600;0.065
78.650;0.065
78.700;0.065
78.750;0.065
78.800;0.065
78.850;0.064
78.900;0.064
78.950;0.064
79.000;0.064
79.050;0.064
79.100;0.063
79.150;0.064
79.200;0.064
79.250;0.064
79.300;0.063
79.350;0.063
79.400;0.063
79.450;0.062
79.500;0.063
79.550;0.063
79.600;0.063
79.650;0.062
79.700;0.061
79.750;0.061
79.800;0.062
79.850;0.061
79.900;0.061
79.950;0.061
80.000;0.061
80.050;0.061
80.100;0.060
80.150;0.060
80.200;0.060
80.250;0.060
80.300;0.060
80.350;0.060
80.400;0.059
80.450;0.059
80.500;0.058
80.550;0.058
80.600;0.058
80.650;0.058
80.700;0.058
80.750;0.058
80.800;0.057
80.850;0.057
80.900;0.057
80.950;0.057
81.000;0.057
81.050;0.057
81.100;0.057
81.150;0.056
81.200;0.056
81.250;0.056
81.300;0.056
81.350;0.056
81.400;0.056
81.450;0.056
81.500;0.055
81.550;0.055
81.600;0.055
81.650;0.055
81.700;0.055
81.750;0.055
81.800;0.055
81.850;0.055
81.900;0.055
81.950;0.054
82.000;0.053
82.050;0.053
82.100;0.053
82.150;0.053
82.200;0.053
82.250;0.053
82.300;0.052
82.350;0.053
82.400;0.053
82.450;0.053
82.500;0.053
82.550;0.052
82.600;0.052
82.650;0.052
82.700;0.051
82.750;0.051
82.800;0.051
82.850;0.052
82.900;0.051
82.950;0.051
83.000;0.051
83.050;0.050
83.100;0.049
83.150;0.049
83.200;0.049
83.250;0.049
83.300;0.049
83.350;0.050
83.400;0.049
83.450;0.049
83.500;0.048
83.550;0.049
83.600;0.048
83.650;0.049
83.700;0.048
83.750;0.048
83.800;0.047
83.850;0.047
83.900;0.047
83.950;0.046
84.000;0.047
84.050;0.047
84.100;0.047
84.150;0.047
84.200;0.046
84.250;0.046
84.300;0.046
84.350;0.047
84.400;0.047
84.450;0.047
84.500;0.046
84.550;0.046
84.600;0.046
84.650;0.046
84.700;0.045
84.750;0.045
84.800;0.045
84.850;0.045
84.900;0.044
84.950;0.043
85.000;0.044
85.050;0.044
85.100;0.044
85.150;0.044
85.200;0.044
85.250;0.044
85.300;0.043
85.350;0.043
85.400;0.043
85.450;0.043
85.500;0.042
85.550;0.042
85.600;0.042
85.650;0.042
85.700;0.041
85.750;0.042
85.800;0.042
85.850;0.042
85.900;0.042
85.950;0.042
86.000;0.042
86.050;0.041
86.100;0.041
86.150;0.041
86.200;0.041
86.250;0.041
86.300;0.041
86.350;0.041
86.400;0.041
86.450;0.040
86.500;0.040
86.550;0.040
86.600;0.040
86.650;0.040
86.700;0.040
86.750;0.040
86.800;0.039
86.850;0.039
86.900;0.039
86.950;0.039
87.000;0.039
87.050;0.039
87.100;0.039
87.150;0.039
87.200;0.039
87.250;0.039
87.300;0.038
87.350;0.038
87.400;0.039
87.450;0.039
87.500;0.038
87.550;0.038
87.600;0.038
87.650;0.037
87.700;0.037
87.750;0.037
87.800;0.037
87.850;0.038
87.900;0.037
87.950;0.037
88.000;0.037
88.050;0.036
88.100;0.036
88.150;0.037
88.200;0.037
88.250;0.036
88.300;0.036
88.350;0.036
88.400;0.036
88.450;0.036
88.500;0.036
88.550;0.036
88.600;0.036
88.650;0.036
88.700;0.035
88.750;0.035
88.800;0.035
88.850;0.036
88.900;0.035
88.950;0.036
89.000;0.035
89.050;0.035
89.100;0.034
89.150;0.034
89.200;0.034
89.250;0.034
89.300;0.034
89.350;0.034
89.400;0.034
89.450;0.034
89.500;0.033
89.550;0.033
89.600;0.033
89.650;0.034
89.700;0.034
89.750;0.034
89.800;0.033
89.850;0.033
89.900;0.032
89.950;0.032
90.000;0.033
90.050;0.033
90.100;0.033
90.150;0.033
90.200;0.032
90.250;0.031
90.300;0.032
90.350;0.032
90.400;0.032
90.450;0.032
90.500;0.031
90.550;0.031
90.600;0.031
90.650;0.031
90.700;0.031
90.750;0.031
90.800;0.031
90.850;0.031
90.900;0.031
90.950;0.031
91.000;0.031
91.050;0.031
91.100;0.031
91.150;0.031
91.200;0.031
91.250;0.031
91.300;0.031
91.350;0.030
91.400;0.030
91.450;0.030
91.500;0.030
91.550;0.030
91.600;0.030
91.650;0.029
91.700;0.029
91.750;0.029
91.800;0.029
91.850;0.029
91.900;0.029
91.950;0.029
92.000;0.029
92.050;0.028
92.100;0.028
92.150;0.028
92.200;0.028
92.250;0.029
92.300;0.029
92.350;0.029
92.400;0.029
92.450;0.028
92.500;0.028
92.550;0.028
92.600;0.028
92.650;0.028
92.700;0.028
92.750;0.028
92.800;0.028
92.850;0.028
92.900;0.027
92.950;0.027
93.000;0.028
93.050;0.028
93.100;0.028
93.150;0.027
93.200;0.027
93.250;0.027
93.300;0.027
93.350;0.027
93.400;0.028
93.450;0.028
93.500;0.028
93.550;0.027
93.600;0.027
93.650;0.027
93.700;0.027
93.750;0.027
93.800;0.027
93.850;0.027
93.900;0.027
93.950;0.026
94.000;0.027
94.050;0.026
94.100;0.026
94.150;0.027
94.200;0.027
94.250;0.026
94.300;0.026
94.350;0.026
94.400;0.025
94.450;0.025
94.500;0.026
94.550;0.026
94.600;0.027
94.650;0.026
94.700;0.026
94.750;0.025
94.800;0.025
94.850;0.025
94.900;0.025
94.950;0.025
95.000;0.025
95.050;0.024
95.100;0.024
95.150;0.024
95.200;0.025
95.250;0.025
95.300;0.025
95.350;0.025
95.400;0.024
95.450;0.024
95.500;0.024
95.550;0.024
95.600;0.024
95.650;0.024
95.700;0.024
95.750;0.024
95.800;0.024
95.850;0.024
95.900;0.024
95.950;0.024
96.000;0.024
96.050;0.024
96.100;0.024
96.150;0.024
96.200;0.023
96.250;0.024
96.300;0.023
96.350;0.023
96.400;0.023
96.450;0.024
96.500;0.023
96.550;0.022
96.600;0.023
96.650;0.023
96.700;0.022
96.750;0.022
96.800;0.022
96.850;0.022
96.900;0.022
96.950;0.022
97.000;0.022
97.050;0.021
97.100;0.021
97.150;0.022
97.200;0.021
97.250;0.021
97.300;0.021
97.350;0.021
97.400;0.021
97.450;0.021
97.500;0.021
97.550;0.022
97.600;0.021
97.650;0.021
97.700;0.021
97.750;0.021
97.800;0.020
97.850;0.020
97.900;0.021
97.950;0.021
98.000;0.020
98.050;0.020
98.100;0.020
98.150;0.020
98.200;0.020
98.250;0.020
98.300;0.020
98.350;0.020
98.400;0.020
98.450;0.019
98.500;0.019
98.550;0.019
98.600;0.019
98.650;0.019
98.700;0.020
98.750;0.020
98.800;0.019
98.850;0.019
98.900;0.019
98.950;0.019
99.000;0.019
99.050;0.019
99.100;0.019
99.150;0.018
99.200;0.018
99.250;0.018
99.300;0.018
99.350;0.019
99.400;0.019
99.450;0.019
99.500;0.018
99.550;0.018
99.600;0.018
99.650;0.018
99.700;0.018
99.750;0.019
99.800;0.019
99.850;0.018
99.900;0.018
99.950;0.018
100.000;0.018
100.050;0.018
100.100;0.017
100.150;0.018
100.200;0.018
100.250;0.017
100.300;0.017
100.350;0.017
100.400;0.017
100.450;0.017
100.500;0.017
100.550;0.018
100.600;0.017
100.650;0.017
100.700;0.017
100.750;0.016
100.800;0.017
100.850;0.016
100.900;0.017
100.950;0.017
101.000;0.016
101.050;0.016
101.100;0.016
101.150;0.017
101.200;0.017
101.250;0.017
101.300;0.017
101.350;0.017
101.400;0.016
101.450;0.016
101.500;0.016
101.550;0.016
101.600;0.016
101.650;0.017
101.700;0.017
101.750;0.016
101.800;0.016
101.850;0.016
101.900;0.016
101.950;0.016
102.000;0.016
102.050;0.016
102.100;0.016
102.150;0.016
102.200;0.016
102.250;0.016
102.300;0.016
102.350;0.016
102.400;0.016
102.450;0.016
102.500;0.016
102.550;0.016
102.600;0.016
102.650;0.016
102.700;0.016
102.750;0.016
102.800;0.016
102.850;0.016
102.900;0.015
102.950;0.015
103.000;0.015
103.050;0.016
103.100;0.016
103.150;0.015
103.200;0.016
103.250;0.015
103.300;0.015
103.350;0.015
103.400;0.015
103.450;0.015
103.500;0.015
103.550;0.015
103.600;0.015
103.650;0.015
103.700;0.014
103.750;0.014
103.800;0.014
103.850;0.015
103.900;0.015
103.950;0.015
104.000;0.015
104.050;0.014
104.100;0.014
104.150;0.014
104.200;0.014
104.250;0.015
104.300;0.015
104.350;0.015
104.400;0.014
104.450;0.014
104.500;0.014
104.550;0.015
104.600;0.015
104.650;0.015
104.700;0.015
104.750;0.015
104.800;0.014
104.850;0.014
104.900;0.014
104.950;0.014
105.000;0.015
105.050;0.015
105.100;0.015
105.150;0.015
105.200;0.014
105.250;0.015
105.300;0.014
105.350;0.014
105.400;0.014
105.450;0.014
105.500;0.014
105.550;0.014
105.600;0.014
105.650;0.014
105.700;0.013
105.750;0.014
105.800;0.014
105.850;0.013
105.900;0.013
105.950;0.013
106.000;0.013
106.050;0.013
106.100;0.013
106.150;0.014
106.200;0.013
106.250;0.013
106.300;0.012
106.350;0.013
106.400;0.013
106.450;0.013
106.500;0.013
106.550;0.013
106.600;0.013
106.650;0.012
106.700;0.012
106.750;0.012
106.800;0.012
106.850;0.012
106.900;0.013
106.950;0.013
107.000;0.012
107.050;0.011
107.100;0.011
107.150;0.012
107.200;0.011
107.250;0.013
107.300;0.013
107.350;0.013
107.400;0.012
107.450;0.013
107.500;0.013
107.550;0.013
107.600;0.013
107.650;0.013
107.700;0.013
107.750;0.011
107.800;0.011
107.850;0.011
107.900;0.012
107.950;0.012
108.000;0.012
108.050;0.012
108.100;0.011
108.150;0.011
108.200;0.011
108.250;0.011
108.300;0.011
108.350;0.011
108.400;0.013
108.450;0.012
108.500;0.012
108.550;0.011
108.600;0.011
108.650;0.011
108.700;0.011
108.750;0.012
108.800;0.011
108.850;0.011
108.900;0.010
108.950;0.010
109.000;0.010
109.050;0.010
109.100;0.011
109.150;0.011
109.200;0.010
109.250;0.010
109.300;0.010
109.350;0.010
109.400;0.010
109.450;0.010
109.500;0.011
109.550;0.010
109.600;0.010
109.650;0.010
109.700;0.010
109.750;0.010
109.800;0.010
109.850;0.010
109.900;0.010
109.950;0.010
110.000;0.010
110.050;0.010
110.100;0.010
110.150;0.010
110.200;0.010
110.250;0.010
110.300;0.010
110.350;0.010
110.400;0.010
110.450;0.009
110.500;0.009
110.550;0.009
110.600;0.010
110.650;0.010
110.700;0.009
110.750;0.009
110.800;0.009
110.850;0.009
110.900;0.009
110.950;0.010
111.000;0.010
111.050;0.010
111.100;0.010
111.150;0.009
111.200;0.009
111.250;0.009
111.300;0.009
111.350;0.010
111.400;0.009
111.450;0.009
111.500;0.009
111.550;0.009
111.600;0.008
111.650;0.009
111.700;0.009
111.750;0.009
111.800;0.009
111.850;0.008
111.900;0.009
111.950;0.009
112.000;0.009
112.050;0.009
112.100;0.009
112.150;0.009
112.200;0.009
112.250;0.009
112.300;0.009
112.350;0.009
112.400;0.009
112.450;0.009
112.500;0.009
112.550;0.009
112.600;0.009
112.650;0.008
112.700;0.008
112.750;0.008
112.800;0.009
112.850;0.009
112.900;0.009
112.950;0.009
113.000;0.009
113.050;0.008
113.100;0.008
113.150;0.008
113.200;0.008
113.250;0.008
113.300;0.008
113.350;0.008
113.400;0.008
113.450;0.008
113.500;0.008
113.550;0.008
113.600;0.009
113.650;0.009
113.700;0.008
113.750;0.008
113.800;0.008
113.850;0.008
113.900;0.008
113.950;0.008
114.000;0.008
114.050;0.008
114.100;0.008
114.150;0.008
114.200;0.008
114.250;0.008
114.300;0.008
114.350;0.008
114.400;0.008
114.450;0.008
114.500;0.008
114.550;0.007
114.600;0.008
114.650;0.008
114.700;0.008
114.750;0.008
114.800;0.008
114.850;0.008
114.900;0.007
114.950;0.007
115.000;0.008
115.050;0.008
115.100;0.008
115.150;0.008
115.200;0.008
115.250;0.007
115.300;0.007
115.350;0.007
115.400;0.008
115.450;0.008
115.500;0.008
115.550;0.008
115.600;0.007
115.650;0.007
115.700;0.008
115.750;0.007
115.800;0.008
115.850;0.008
115.900;0.008
115.950;0.008
116.000;0.008
116.050;0.007
116.100;0.007
116.150;0.007
116.200;0.007
116.250;0.008
116.300;0.008
116.350;0.007
116.400;0.007
116.450;0.007
116.500;0.007
116.550;0.007
116.600;0.007
116.650;0.008
116.700;0.008
116.750;0.008
116.800;0.008
116.850;0.008
116.900;0.007
116.950;0.008
117.000;0.008
117.050;0.007
117.100;0.007
117.150;0.007
117.200;0.008
117.250;0.007
117.300;0.007
117.350;0.007
117.400;0.007
117.450;0.007
117.500;0.007
117.550;0.007
117.600;0.007
117.650;0.007
117.700;0.007
117.750;0.007
117.800;0.007
117.850;0.006
117.900;0.007
117.950;0.006
118.000;0.007
118.050;0.007
118.100;0.007
118.150;0.008
118.200;0.007
118.250;0.007
118.300;0.006
118.350;0.007
118.400;0.007
118.450;0.007
118.500;0.007
118.550;0.007
118.600;0.007
118.650;0.006
118.700;0.007
118.750;0.007
118.800;0.007
118.850;0.007
118.900;0.007
118.950;0.007
119.000;0.007
119.050;0.006
119.100;0.007
119.150;0.007
119.200;0.007
119.250;0.007
119.300;0.007
119.350;0.007
119.400;0.006
119.450;0.006
119.500;0.006
119.550;0.007
119.600;0.007
119.650;0.007
119.700;0.006
119.750;0.006
119.800;0.006
119.850;0.006
119.900;0.007
119.950;0.007
120.000;0.007
120.050;0.007
120.100;0.007
120.150;0.006
120.200;0.006
120.250;0.007
120.300;0.006
120.350;0.007
120.400;0.007
120.450;0.006
120.500;0.006
120.550;0.006
120.600;0.006
120.650;0.006
120.700;0.007
120.750;0.007
120.800;0.007
120.850;0.006
120.900;0.006
120.950;0.006
121.000;0.006
121.050;0.006
121.100;0.007
121.150;0.006
121.200;0.006
121.250;0.006
121.300;0.007
121.350;0.007
121.400;0.007
121.450;0.007
121.500;0.007
121.550;0.006
121.600;0.006
121.650;0.006
121.700;0.006
121.750;0.006
121.800;0.006
121.850;0.006
121.900;0.006
121.950;0.006
122.000;0.006
122.050;0.006
122.100;0.005
122.150;0.005
122.200;0.006
122.250;0.006
122.300;0.006
122.350;0.005
122.400;0.005
122.450;0.006
122.500;0.006
122.550;0.006
122.600;0.007
122.650;0.006
122.700;0.006
122.750;0.006
122.800;0.006
122.850;0.006
122.900;0.006
122.950;0.006
123.000;0.006
123.050;0.006
123.100;0.006
123.150;0.005
123.200;0.006
123.250;0.005
123.300;0.005
123.350;0.005
123.400;0.005
123.450;0.005
123.500;0.005
123.550;0.005
123.600;0.005
123.650;0.005
123.700;0.005
123.750;0.005
123.800;0.005
123.850;0.004
123.900;0.005
123.950;0.005
124.000;0.005
124.050;0.005
124.100;0.006
124.150;0.005
124.200;0.005
124.250;0.004
124.300;0.004
124.350;0.005
124.400;0.005
124.450;0.005
124.500;0.006
124.550;0.005
124.600;0.005
124.650;0.005
124.700;0.005
124.750;0.005
124.800;0.006
124.850;0.005
124.900;0.005
124.950;0.004
125.000;0.005
125.050;0.005
125.100;0.005
125.150;0.005
125.200;0.005
125.250;0.005
125.300;0.005
125.350;0.005
125.400;0.005
125.450;0.005
125.500;0.005
125.550;0.006
125.600;0.006
125.650;0.005
125.700;0.004
125.750;0.005
125.800;0.005
125.850;0.005
125.900;0.005
125.950;0.005
126.000;0.005
126.050;0.005
126.100;0.005
126.150;0.005
126.200;0.005
126.250;0.005
126.300;0.006
126.350;0.005
126.400;0.005
126.450;0.005
126.500;0.005
126.550;0.005
126.600;0.005
126.650;0.005
126.700;0.006
126.750;0.006
126.800;0.005
126.850;0.005
126.900;0.005
126.950;0.005
127.000;0.005
127.050;0.005
127.100;0.005
127.150;0.005
127.200;0.005
127.250;0.005
127.300;0.005
127.350;0.005
127.400;0.005
127.450;0.005
127.500;0.005
127.550;0.005
127.600;0.005
127.650;0.005
127.700;0.005
127.750;0.006
127.800;0.006
127.850;0.005
127.900;0.005
127.950;0.005
128.000;0.005
128.050;0.005
128.100;0.006
128.150;0.006
128.200;0.006
128.250;0.006
128.300;0.005
128.350;0.005
128.400;0.005
128.450;0.005
128.500;0.005
128.550;0.005
128.600;0.006
128.650;0.005
128.700;0.005
128.750;0.005
128.800;0.005
128.850;0.005
128.900;0.005
128.950;0.005
129.000;0.005
129.050;0.005
129.100;0.005
129.150;0.005
129.200;0.005
129.250;0.005
129.300;0.006
129.350;0.005
129.400;0.005
129.450;0.005
129.500;0.005
129.550;0.005
129.600;0.005
129.650;0.005
129.700;0.005
129.750;0.005
129.800;0.005
129.850;0.004
129.900;0.005
129.950;0.004
130.000;0.004
130.050;0.005
130.100;0.005
130.150;0.005
130.200;0.004
130.250;0.004
130.300;0.005
130.350;0.005
130.400;0.006
130.450;0.006
130.500;0.005
130.550;0.004
130.600;0.005
130.650;0.005
130.700;0.006
130.750;0.005
130.800;0.006
130.850;0.005
130.900;0.005
130.950;0.004
131.000;0.005
131.050;0.005
131.100;0.005
131.150;0.004
131.200;0.005
131.250;0.005
131.300;0.005
131.350;0.004
131.400;0.005
131.450;0.005
131.500;0.005
131.550;0.006
131.600;0.005
131.650;0.004
131.700;0.004
131.750;0.004
131.800;0.005
131.850;0.005
131.900;0.005
131.950;0.005
132.000;0.004
132.050;0.004
132.100;0.004
132.150;0.004
132.200;0.004
132.250;0.004
132.300;0.005
132.350;0.005
132.400;0.004
132.450;0.004
132.500;0.004
132.550;0.004
132.600;0.004
132.650;0.004
132.700;0.005
132.750;0.004
132.800;0.004
132.850;0.003
132.900;0.004
132.950;0.004
133.000;0.004
133.050;0.004
133.100;0.004
133.150;0.003
133.200;0.004
133.250;0.004
133.300;0.004
133.350;0.004
133.400;0.005
133.450;0.005
133.500;0.005
133.550;0.004
133.600;0.004
133.650;0.004
133.700;0.004
133.750;0.004
133.800;0.005
133.850;0.004
133.900;0.004
133.950;0.004
134.000;0.004
134.050;0.004
134.100;0.004
134.150;0.004
134.200;0.004
134.250;0.004
134.300;0.003
134.350;0.003
134.400;0.004
134.450;0.004
134.500;0.004
134.550;0.004
134.600;0.005
134.650;0.004
134.700;0.004
134.750;0.004
134.800;0.004
134.850;0.004
134.900;0.004
134.950;0.004
135.000;0.004
135.050;0.003
135.100;0.004
135.150;0.004
135.200;0.004
135.250;0.005
135.300;0.004
135.350;0.004
135.400;0.004
135.450;0.004
135.500;0.004
135.550;0.004
135.600;0.005
135.650;0.004
135.700;0.004
135.750;0.004
135.800;0.004
135.850;0.004
135.900;0.004
135.950;0.004
136.000;0.004
136.050;0.004
136.100;0.004
136.150;0.003
136.200;0.004
136.250;0.003
136.300;0.004
136.350;0.004
136.400;0.004
136.450;0.004
136.500;0.003
136.550;0.003
136.600;0.004
136.650;0.003
136.700;0.004
136.750;0.004
136.800;0.004
136.850;0.003
136.900;0.003
136.950;0.003
137.000;0.003
137.050;0.003
137.100;0.004
137.150;0.004
137.200;0.004
137.250;0.003
137.300;0.003
137.350;0.004
137.400;0.004
137.450;0.003
137.500;0.004
137.550;0.003
137.600;0.003
137.650;0.003
137.700;0.004
137.750;0.004
137.800;0.004
137.850;0.004
137.900;0.004
137.950;0.004
138.000;0.003
138.050;0.003
138.100;0.003
138.150;0.003
138.200;0.003
138.250;0.003
138.300;0.003
138.350;0.003
138.400;0.003
138.450;0.003
138.500;0.004
138.550;0.003
138.600;0.004
138.650;0.004
138.700;0.003
138.750;0.003
138.800;0.003
138.850;0.003
138.900;0.004
138.950;0.003
139.000;0.004
139.050;0.003
139.100;0.003
139.150;0.003
139.200;0.003
139.250;0.003
139.300;0.004
139.350;0.004
139.400;0.004
139.450;0.004
139.500;0.004
139.550;0.003
139.600;0.003
139.650;0.003
139.700;0.004
139.750;0.004
139.800;0.004
139.850;0.003
139.900;0.003
139.950;0.003
140.000;0.003
140.050;0.003
140.100;0.004
140.150;0.003
140.200;0.004
140.250;0.003
140.300;0.003
140.350;0.002
140.400;0.003
140.450;0.003
140.500;0.004
140.550;0.004
140.600;0.003
140.650;0.003
140.700;0.003
140.750;0.003
140.800;0.003
140.850;0.004
140.900;0.003
140.950;0.003
141.000;0.003
141.050;0.002
141.100;0.003
141.150;0.003
141.200;0.004
141.250;0.004
141.300;0.003
141.350;0.003
141.400;0.003
141.450;0.003
141.500;0.003
141.550;0.003
141.600;0.004
141.650;0.004
141.700;0.003
141.750;0.003
141.800;0.003
141.850;0.003
141.900;0.004
141.950;0.004
142.000;0.004
142.050;0.004
142.100;0.003
142.150;0.003
142.200;0.003
142.250;0.003
142.300;0.003
142.350;0.004
142.400;0.004
142.450;0.003
142.500;0.003
142.550;0.003
142.600;0.003
142.650;0.004
142.700;0.004
142.750;0.003
142.800;0.003
142.850;0.003
142.900;0.003
142.950;0.003
143.000;0.003
143.050;0.003
143.100;0.004
143.150;0.003
143.200;0.003
143.250;0.003
143.300;0.003
143.350;0.003
143.400;0.004
143.450;0.004
143.500;0.004
143.550;0.003
143.600;0.003
143.650;0.003
143.700;0.003
143.750;0.002
143.800;0.003
143.850;0.004
143.900;0.003
143.950;0.003
144.000;0.003
144.050;0.003
144.100;0.003
144.150;0.003
144.200;0.003
144.250;0.003
144.300;0.003
144.350;0.003
144.400;0.003
144.450;0.003
144.500;0.003
144.550;0.003
144.600;0.004
144.650;0.003
144.700;0.003
144.750;0.002
144.800;0.003
144.850;0.003
144.900;0.003
144.950;0.004
145.000;0.003
145.050;0.003
145.100;0.003
145.150;0.003
145.200;0.003
145.250;0.003
145.300;0.004
145.350;0.004
145.400;0.003
145.450;0.003
145.500;0.003
145.550;0.003
145.600;0.003
145.650;0.004
145.700;0.004
145.750;0.004
145.800;0.003
145.850;0.003
145.900;0.003
145.950;0.003
146.000;0.004
146.050;0.004
146.100;0.003
146.150;0.003
146.200;0.003
146.250;0.003
146.300;0.003
146.350;0.003
146.400;0.004
146.450;0.004
146.500;0.004
146.550;0.004
146.600;0.003
146.650;0.003
146.700;0.003
146.750;0.003
146.800;0.004
146.850;0.004
146.900;0.004
146.950;0.003
147.000;0.004
147.050;0.003
147.100;0.004
147.150;0.004
147.200;0.004
147.250;0.004
147.300;0.003
147.350;0.003
147.400;0.003
147.450;0.003
147.500;0.004
147.550;0.004
147.600;0.004
147.650;0.003
147.700;0.003
147.750;0.004
147.800;0.004
147.850;0.004
147.900;0.004
147.950;0.004
148.000;0.003
148.050;0.003
148.100;0.003
148.150;0.003
148.200;0.003
148.250;0.003
148.300;0.004
148.350;0.003
148.400;0.003
148.450;0.003
148.500;0.003
148.550;0.003
148.600;0.003
148.650;0.004
148.700;0.004
148.750;0.003
148.800;0.003
148.850;0.003
148.900;0.003
148.950;0.003
149.000;0.004
149.050;0.004
149.100;0.004
149.150;0.004
149.200;0.003
149.250;0.003
149.300;0.003
149.350;0.004
149.400;0.004
149.450;0.003
149.500;0.003
149.550;0.003
149.600;0.003
149.650;0.003
149.700;0.004
149.750;0.003
149.800;0.004
149.850;0.003
149.900;0.003
149.950;0.002
150.000;0.003
150.050;0.003
150.100;0.003
150.150;0.003
150.200;0.004
150.250;0.003
150.300;0.003
150.350;0.003
150.400;0.003
150.450;0.003
150.500;0.004
150.550;0.004
150.600;0.003
150.650;0.003
150.700;0.003
150.750;0.004
150.800;0.003
150.850;0.005
150.900;0.005
150.950;0.004
151.000;0.004
151.050;0.003
151.100;0.003
151.150;0.003
151.200;0.003
151.250;0.003
151.300;0.003
151.350;0.003
151.400;0.003
151.450;0.003
151.500;0.003
151.550;0.003
151.600;0.003
151.650;0.004
151.700;0.004
151.750;0.003
151.800;0.003
151.850;0.002
151.900;0.003
151.950;0.003
152.000;0.003
152.050;0.003
152.100;0.003
152.150;0.002
152.200;0.002
152.250;0.002
152.300;0.002
152.350;0.002
152.400;0.003
152.450;0.002
152.500;0.003
152.550;0.002
152.600;0.002
152.650;0.003
152.700;0.003
152.750;0.003
152.800;0.003
152.850;0.003
152.900;0.003
152.950;0.003
153.000;0.002
153.050;0.003
153.100;0.003
153.150;0.003
153.200;0.003
153.250;0.003
153.300;0.002
153.350;0.002
153.400;0.002
153.450;0.003
153.500;0.003
153.550;0.003
153.600;0.002
153.650;0.003
153.700;0.003
153.750;0.003
153.800;0.003
153.850;0.004
153.900;0.004
153.950;0.003
154.000;0.002
154.050;0.002
154.100;0.003
154.150;0.003
154.200;0.003
154.250;0.003
154.300;0.003
154.350;0.003
154.400;0.002
154.450;0.002
154.500;0.002
154.550;0.003
154.600;0.003
154.650;0.003
154.700;0.003
154.750;0.003
154.800;0.003
154.850;0.003
154.900;0.003
154.950;0.003
155.000;0.003
155.050;0.003
155.100;0.003
155.150;0.002
155.200;0.002
155.250;0.002
155.300;0.002
155.350;0.003
155.400;0.003
155.450;0.002
155.500;0.002
155.550;0.002
155.600;0.003
155.650;0.002
155.700;0.003
155.750;0.003
155.800;0.003
155.850;0.003
155.900;0.003
155.950;0.003
156.000;0.003
156.050;0.003
156.100;0.003
156.150;0.004
156.200;0.003
156.250;0.003
156.300;0.003
156.350;0.003
156.400;0.003
156.450;0.003
156.500;0.003
156.550;0.003
156.600;0.003
156.650;0.002
156.700;0.003
156.750;0.003
156.800;0.003
156.850;0.003
156.900;0.004
156.950;0.003
157.000;0.003
157.050;0.003
157.100;0.004
157.150;0.003
157.200;0.004
157.250;0.004
157.300;0.003
157.350;0.003
157.400;0.003
157.450;0.003
157.500;0.003
157.550;0.003
157.600;0.003
157.650;0.003
157.700;0.003
157.750;0.002
157.800;0.002
157.850;0.002
157.900;0.003
157.950;0.003
158.000;0.003
158.050;0.003
158.100;0.002
158.150;0.002
158.200;0.003
158.250;0.002
158.300;0.003
158.350;0.003
158.400;0.003
158.450;0.003
158.500;0.003
158.550;0.003
158.600;0.003
158.650;0.003
158.700;0.003
158.750;0.003
158.800;0.003
158.850;0.002
158.900;0.002
158.950;0.002
159.000;0.003
159.050;0.003
159.100;0.003
159.150;0.003
159.200;0.003
159.250;0.002
159.300;0.002
159.350;0.002
159.400;0.003
159.450;0.003
159.500;0.003
159.550;0.002
159.600;0.002
159.650;0.002
159.700;0.002
159.750;0.002
159.800;0.003
159.850;0.003
159.900;0.003
159.950;0.003
160.000;0.003
160.050;0.002
160.100;0.002
160.150;0.003
160.200;0.003
160.250;0.003
160.300;0.003
160.350;0.001
160.400;0.002
160.450;0.002
160.500;0.003
160.550;0.003
160.600;0.003
160.650;0.002
160.700;0.003
160.750;0.002
160.800;0.002
160.850;0.003
160.900;0.003
160.950;0.003
161.000;0.003
161.050;0.002
161.100;0.002
161.150;0.003
161.200;0.003
161.250;0.003
161.300;0.004
161.350;0.003
161.400;0.002
161.450;0.002
161.500;0.002
161.550;0.002
161.600;0.003
161.650;0.003
161.700;0.003
161.750;0.003
161.800;0.003
161.850;0.002
161.900;0.002
161.950;0.002
162.000;0.003
162.050;0.003
162.100;0.003
162.150;0.002
162.200;0.003
162.250;0.002
162.300;0.002
162.350;0.002
162.400;0.002
162.450;0.002
162.500;0.002
162.550;0.001
162.600;0.002
162.650;0.002
162.700;0.002
162.750;0.002
162.800;0.003
162.850;0.003
162.900;0.002
162.950;0.002
163.000;0.002
163.050;0.002
163.100;0.002
163.150;0.002
163.200;0.003
163.250;0.002
163.300;0.002
163.350;0.002
163.400;0.002
163.450;0.002
163.500;0.002
163.550;0.003
163.600;0.002
163.650;0.002
163.700;0.001
163.750;0.001
163.800;0.002
163.850;0.002
163.900;0.003
163.950;0.002
164.000;0.002
164.050;0.001
164.100;0.002
164.150;0.001
164.200;0.002
164.250;0.002
164.300;0.003
164.350;0.002
164.400;0.002
164.450;0.002
164.500;0.002
164.550;0.002
164.600;0.002
164.650;0.002
164.700;0.002
164.750;0.002
164.800;0.002
164.850;0.001
164.900;0.002
164.950;0.002
165.000;0.003
165.050;0.002
165.100;0.002
165.150;0.001
165.200;0.002
165.250;0.002
165.300;0.002
165.350;0.002
165.400;0.002
165.450;0.002
165.500;0.002
165.550;0.001
165.600;0.002
165.650;0.002
165.700;0.002
165.750;0.002
165.800;0.003
165.850;0.002
165.900;0.002
165.950;0.001
166.000;0.002
166.050;0.001
166.100;0.002
166.150;0.002
166.200;0.002
166.250;0.002
166.300;0.002
166.350;0.002
166.400;0.002
166.450;0.001
166.500;0.002
166.550;0.002
166.600;0.002
166.650;0.001
166.700;0.002
166.750;0.001
166.800;0.001
166.850;0.001
166.900;0.002
166.950;0.002
167.000;0.002
167.050;0.001
167.100;0.002
167.150;0.002
167.200;0.002
167.250;0.002
167.300;0.002
167.350;0.002
167.400;0.001
167.450;0.001
167.500;0.001
167.550;0.001
167.600;0.002
167.650;0.002
167.700;0.002
167.750;0.002
167.800;0.002
167.850;0.002
167.900;0.002
167.950;0.002
168.000;0.002
168.050;0.002
168.100;0.001
168.150;0.001
168.200;0.002
168.250;0.001
168.300;0.002
168.350;0.002
168.400;0.002
168.450;0.002
168.500;0.002
168.550;0.001
168.600;0.002
168.650;0.002
168.700;0.003
168.750;0.003
168.800;0.002
168.850;0.002
168.900;0.002
168.950;0.002
169.000;0.003
169.050;0.002
169.100;0.002
169.150;0.002
169.200;0.002
169.250;0.001
169.300;0.002
169.350;0.002
169.400;0.001
169.450;0.001
169.500;0.002
169.550;0.002
169.600;0.001
169.650;9.401E-4
169.700;9.401E-4
169.750;0.001
169.800;0.002
169.850;0.002
169.900;0.002
169.950;0.002
170.000;0.001
170.050;0.001
170.100;0.002
170.150;0.001
170.200;0.002
170.250;0.001
170.300;0.002
170.350;9.401E-4
170.400;9.401E-4
170.450;0.001
170.500;0.001
170.550;0.002
170.600;0.002
170.650;0.002
170.700;0.002
170.750;0.001
170.800;0.002
170.850;0.001
170.900;0.002
170.950;0.002
171.000;0.002
171.050;0.001
171.100;0.001
171.150;0.002
171.200;0.002
171.250;0.001
171.300;0.002
171.350;0.002
171.400;0.002
171.450;0.001
171.500;0.002
171.550;0.002
171.600;0.002
171.650;0.001
171.700;0.002
171.750;0.002
171.800;0.002
171.850;0.001
171.900;0.001
171.950;0.002
172.000;0.002
172.050;0.002
172.100;0.002
172.150;0.002
172.200;0.001
172.250;9.401E-4
172.300;9.401E-4
172.350;0.001
172.400;0.002
172.450;0.002
172.500;0.001
172.550;0.001
172.600;0.002
172.650;0.001
172.700;0.002
172.750;0.001
172.800;0.002
172.850;0.002
172.900;0.002
172.950;0.002
173.000;0.001
173.050;0.001
173.100;0.002
173.150;0.002
173.200;0.002
173.250;0.002
173.300;0.002
173.350;0.002
173.400;0.002
173.450;0.001
173.500;0.001
173.550;0.002
173.600;0.002
173.650;0.002
173.700;0.002
173.750;0.001
173.800;0.001
173.850;9.401E-4
173.900;0.001
173.950;0.002
174.000;0.002
174.050;0.001
174.100;0.001
174.150;0.002
174.200;0.002
174.250;0.001
174.300;0.002
174.350;0.002
174.400;0.001
174.450;0.001
174.500;9.401E-4
174.550;0.001
174.600;0.002
174.650;9.401E-4
174.700;0.001
174.750;0.001
174.800;0.001
174.850;9.401E-4
174.900;9.401E-4
174.950;0.001
175.000;0.002
175.050;0.002
175.100;0.002
175.150;0.001
175.200;9.401E-4
175.250;0.001
175.300;0.001
175.350;0.001
175.400;0.002
175.450;0.001
175.500;0.001
175.550;0.001
175.600;0.001
175.650;0.001
175.700;0.001
175.750;0.002
175.800;0.002
175.850;0.002
175.900;0.002
175.950;0.002
176.000;0.002
176.050;0.001
176.100;0.002
176.150;0.002
176.200;0.002
176.250;0.002
176.300;0.001
176.350;0.001
176.400;0.002
176.450;0.002
176.500;0.002
176.550;0.002
176.600;0.002
176.650;0.002
176.700;0.002
176.750;0.002
176.800;0.002
176.850;0.002
176.900;0.002
176.950;0.002
177.000;0.002
177.050;0.002
177.100;0.002
177.150;0.002
177.200;0.003
177.250;0.002
177.300;0.002
177.350;0.002
177.400;0.002
177.450;0.002
177.500;0.002
177.550;0.002
177.600;0.002
177.650;0.002
177.700;0.002
177.750;0.002
177.800;0.002
177.850;0.002
177.900;0.002
177.950;0.002
178.000;0.002
178.050;0.002
178.100;0.003
178.150;0.002
178.200;0.002
178.250;0.001
178.300;0.002
178.350;0.002
178.400;0.002
178.450;0.002
178.500;0.002
178.550;0.001
178.600;0.001
178.650;0.002
178.700;0.001
178.750;0.002
178.800;0.002
178.850;0.002
178.900;0.001
178.950;0.002
179.000;0.002
179.050;0.002
179.100;0.002
179.150;0.002
179.200;0.002
179.250;0.002
179.300;0.001
179.350;0.001
179.400;0.002
179.450;0.002
179.500;0.002
179.550;0.002
179.600;0.002
179.650;0.001
179.700;0.001
179.750;0.002
179.800;0.002
179.850;0.002
179.900;0.002
179.950;0.002
180.000;0.003
180.050;0.002
180.100;0.003
180.150;0.002
180.200;0.002
180.250;0.003
180.300;0.002
180.350;0.002
180.400;0.002
180.450;0.002
180.500;0.002
180.550;0.002
180.600;0.003
180.650;0.002
180.700;0.003
180.750;0.002
180.800;0.002
180.850;0.002
180.900;0.002
180.950;0.002
181.000;0.003
181.050;0.002
181.100;0.002
181.150;0.002
181.200;0.002
181.250;0.002
181.300;0.002
181.350;0.002
181.400;0.003
181.450;0.003
181.500;0.002
181.550;0.002
181.600;0.003
181.650;0.002
181.700;0.003
181.750;0.002
181.800;0.003
181.850;0.002
181.900;0.002
181.950;0.002
