"Czas (s)";"Napięcie (V)"
0.150;12.036
0.200;11.957
0.250;11.877
0.300;11.799
0.350;11.720
0.400;11.643
0.450;11.567
0.500;11.492
0.550;11.414
0.600;11.339
0.650;11.264
0.700;11.189
0.750;11.116
0.800;11.044
0.850;10.970
0.900;10.897
0.950;10.825
1.000;10.753
1.050;10.682
1.100;10.612
1.150;10.543
1.200;10.472
1.250;10.402
1.300;10.334
1.350;10.266
1.400;10.199
1.450;10.132
1.500;10.066
1.550;9.998
1.600;9.930
1.650;9.865
1.700;9.800
1.750;9.735
1.800;9.671
1.850;9.608
1.900;9.545
1.950;9.481
2.000;9.419
2.050;9.356
2.100;9.295
2.150;9.233
2.200;9.174
2.250;9.113
2.300;9.053
2.350;8.991
2.400;8.933
2.450;8.873
2.500;8.815
2.550;8.756
2.600;8.700
2.650;8.642
2.700;8.587
2.750;8.528
2.800;8.471
2.850;8.414
2.900;8.359
2.950;8.304
3.000;8.250
3.050;8.196
3.100;8.143
3.150;8.089
3.200;8.034
3.250;7.981
3.300;7.928
3.350;7.875
3.400;7.824
3.450;7.772
3.500;7.722
3.550;7.671
3.600;7.621
3.650;7.569
3.700;7.518
3.750;7.469
3.800;7.420
3.850;7.370
3.900;7.322
3.950;7.274
4.000;7.226
4.050;7.179
4.100;7.133
4.150;7.084
4.200;7.037
4.250;6.990
4.300;6.944
4.350;6.898
4.400;6.851
4.450;6.807
4.500;6.763
4.550;6.719
4.600;6.674
4.650;6.631
4.700;6.586
4.750;6.541
4.800;6.498
4.850;6.455
4.900;6.413
4.950;6.371
5.000;6.328
5.050;6.287
5.100;6.246
5.150;6.206
5.200;6.166
5.250;6.124
5.300;6.082
5.350;6.041
5.400;6.002
5.450;5.962
5.500;5.924
5.550;5.884
5.600;5.846
5.650;5.807
5.700;5.769
5.750;5.731
5.800;5.694
5.850;5.657
5.900;5.619
5.950;5.581
6.000;5.543
6.050;5.506
6.100;5.470
6.150;5.434
6.200;5.398
6.250;5.363
6.300;5.327
6.350;5.291
6.400;5.257
6.450;5.222
6.500;5.189
6.550;5.156
6.600;5.120
6.650;5.086
6.700;5.052
6.750;5.018
6.800;4.986
6.850;4.953
6.900;4.921
6.950;4.889
7.000;4.857
7.050;4.824
7.100;4.793
7.150;4.761
7.200;4.731
7.250;4.699
7.300;4.670
7.350;4.637
7.400;4.606
7.450;4.575
7.500;4.545
7.550;4.514
7.600;4.485
7.650;4.456
7.700;4.427
7.750;4.396
7.800;4.368
7.850;4.339
7.900;4.311
7.950;4.282
8.000;4.254
8.050;4.227
8.100;4.199
8.150;4.171
8.200;4.143
8.250;4.115
8.300;4.088
8.350;4.061
8.400;4.034
8.450;4.008
8.500;3.981
8.550;3.955
8.600;3.929
8.650;3.903
8.700;3.878
8.750;3.852
8.800;3.827
8.850;3.802
8.900;3.776
8.950;3.753
9.000;3.728
9.050;3.705
9.100;3.680
9.150;3.654
9.200;3.629
9.250;3.604
9.300;3.582
9.350;3.557
9.400;3.534
9.450;3.512
9.500;3.488
9.550;3.465
9.600;3.443
9.650;3.420
9.700;3.397
9.750;3.375
9.800;3.353
9.850;3.331
9.900;3.309
9.950;3.287
10.000;3.266
10.050;3.244
10.100;3.223
10.150;3.203
10.200;3.179
10.250;3.158
10.300;3.138
10.350;3.116
10.400;3.097
10.450;3.076
10.500;3.056
10.550;3.035
10.600;3.015
10.650;2.995
10.700;2.976
10.750;2.956
10.800;2.936
10.850;2.918
10.900;2.899
10.950;2.878
11.000;2.861
11.050;2.841
11.100;2.823
11.150;2.805
11.200;2.786
11.250;2.768
11.300;2.749
11.350;2.731
11.400;2.715
11.450;2.694
11.500;2.676
11.550;2.658
11.600;2.641
11.650;2.623
11.700;2.606
11.750;2.588
11.800;2.571
11.850;2.555
11.900;2.539
11.950;2.522
12.000;2.505
12.050;2.488
12.100;2.473
12.150;2.456
12.200;2.440
12.250;2.423
12.300;2.408
12.350;2.390
12.400;2.376
12.450;2.360
12.500;2.346
12.550;2.330
12.600;2.315
12.650;2.300
12.700;2.285
12.750;2.269
12.800;2.254
12.850;2.240
12.900;2.226
12.950;2.210
13.000;2.195
13.050;2.180
13.100;2.166
13.150;2.150
13.200;2.136
13.250;2.123
13.300;2.109
13.350;2.095
13.400;2.080
13.450;2.066
13.500;2.054
13.550;2.040
13.600;2.026
13.650;2.013
13.700;2.001
13.750;1.987
13.800;1.973
13.850;1.960
13.900;1.948
13.950;1.935
14.000;1.923
14.050;1.909
14.100;1.897
14.150;1.885
14.200;1.873
14.250;1.861
14.300;1.849
14.350;1.836
14.400;1.825
14.450;1.812
14.500;1.800
14.550;1.789
14.600;1.777
14.650;1.766
14.700;1.755
14.750;1.744
14.800;1.731
14.850;1.718
14.900;1.706
14.950;1.695
15.000;1.685
15.050;1.674
15.100;1.662
15.150;1.651
15.200;1.641
15.250;1.629
15.300;1.619
15.350;1.608
15.400;1.597
15.450;1.587
15.500;1.577
15.550;1.565
15.600;1.556
15.650;1.546
15.700;1.535
15.750;1.525
15.800;1.515
15.850;1.505
15.900;1.495
15.950;1.485
16.000;1.476
16.050;1.466
16.100;1.456
16.150;1.447
16.200;1.438
16.250;1.427
16.300;1.417
16.350;1.408
16.400;1.400
16.450;1.390
16.500;1.381
16.550;1.373
16.600;1.363
16.650;1.354
16.700;1.345
16.750;1.336
16.800;1.328
16.850;1.319
16.900;1.312
16.950;1.303
17.000;1.294
17.050;1.285
17.100;1.277
17.150;1.269
17.200;1.261
17.250;1.252
17.300;1.244
17.350;1.235
17.400;1.226
17.450;1.217
17.500;1.210
17.550;1.202
17.600;1.195
17.650;1.186
17.700;1.177
17.750;1.170
17.800;1.162
17.850;1.155
17.900;1.148
17.950;1.140
18.000;1.132
18.050;1.125
18.100;1.116
18.150;1.109
18.200;1.103
18.250;1.096
18.300;1.089
18.350;1.081
18.400;1.074
18.450;1.068
18.500;1.061
18.550;1.054
18.600;1.045
18.650;1.039
18.700;1.033
18.750;1.026
18.800;1.019
18.850;1.012
18.900;1.005
18.950;0.999
19.000;0.992
19.050;0.986
19.100;0.979
19.150;0.972
19.200;0.965
19.250;0.960
19.300;0.954
19.350;0.949
19.400;0.941
19.450;0.934
19.500;0.928
19.550;0.922
19.600;0.917
19.650;0.912
19.700;0.906
19.750;0.900
19.800;0.893
19.850;0.888
19.900;0.882
19.950;0.877
20.000;0.871
20.050;0.865
20.100;0.859
20.150;0.853
20.200;0.848
20.250;0.842
20.300;0.836
20.350;0.832
20.400;0.827
20.450;0.822
20.500;0.816
20.550;0.810
20.600;0.804
20.650;0.799
20.700;0.794
20.750;0.790
20.800;0.785
20.850;0.779
20.900;0.774
20.950;0.769
21.000;0.764
21.050;0.759
21.100;0.754
21.150;0.749
21.200;0.742
21.250;0.737
21.300;0.732
21.350;0.727
21.400;0.722
21.450;0.718
21.500;0.714
21.550;0.709
21.600;0.704
21.650;0.699
21.700;0.695
21.750;0.690
21.800;0.686
21.850;0.681
21.900;0.677
21.950;0.672
22.000;0.667
22.050;0.664
22.100;0.659
22.150;0.655
22.200;0.651
22.250;0.646
22.300;0.642
22.350;0.637
22.400;0.633
22.450;0.629
22.500;0.625
22.550;0.620
22.600;0.616
22.650;0.612
22.700;0.608
22.750;0.605
22.800;0.600
22.850;0.596
22.900;0.592
22.950;0.589
23.000;0.585
23.050;0.581
23.100;0.577
23.150;0.573
23.200;0.570
23.250;0.566
23.300;0.562
23.350;0.558
23.400;0.554
23.450;0.551
23.500;0.548
23.550;0.545
23.600;0.541
23.650;0.537
23.700;0.533
23.750;0.529
23.800;0.526
23.850;0.523
23.900;0.520
23.950;0.517
24.000;0.513
24.050;0.509
24.100;0.506
24.150;0.502
24.200;0.499
24.250;0.496
24.300;0.493
24.350;0.489
24.400;0.486
24.450;0.483
24.500;0.479
24.550;0.477
24.600;0.474
24.650;0.471
24.700;0.468
24.750;0.465
24.800;0.462
24.850;0.459
24.900;0.455
24.950;0.453
25.000;0.450
25.050;0.447
25.100;0.443
25.150;0.440
25.200;0.437
25.250;0.434
25.300;0.432
25.350;0.430
25.400;0.427
25.450;0.424
25.500;0.421
25.550;0.418
25.600;0.416
25.650;0.414
25.700;0.410
25.750;0.408
25.800;0.405
25.850;0.402
25.900;0.400
25.950;0.398
26.000;0.395
26.050;0.393
26.100;0.390
26.150;0.387
26.200;0.385
26.250;0.382
26.300;0.380
26.350;0.377
26.400;0.375
26.450;0.372
26.500;0.370
26.550;0.368
26.600;0.365
26.650;0.363
26.700;0.361
26.750;0.358
26.800;0.355
26.850;0.353
26.900;0.351
26.950;0.348
27.000;0.346
27.050;0.345
27.100;0.343
27.150;0.341
27.200;0.338
27.250;0.336
27.300;0.334
27.350;0.332
27.400;0.330
27.450;0.328
27.500;0.326
27.550;0.322
27.600;0.320
27.650;0.318
27.700;0.316
27.750;0.314
27.800;0.312
27.850;0.310
27.900;0.308
27.950;0.306
28.000;0.304
28.050;0.302
28.100;0.301
28.150;0.299
28.200;0.298
28.250;0.296
28.300;0.293
28.350;0.291
28.400;0.290
28.450;0.287
28.500;0.286
28.550;0.284
28.600;0.282
28.650;0.280
28.700;0.278
28.750;0.276
28.800;0.275
28.850;0.274
28.900;0.272
28.950;0.270
29.000;0.267
29.050;0.267
29.100;0.264
29.150;0.262
29.200;0.261
29.250;0.259
29.300;0.257
29.350;0.255
29.400;0.252
29.450;0.251
29.500;0.250
29.550;0.248
29.600;0.246
29.650;0.245
29.700;0.243
29.750;0.242
29.800;0.240
29.850;0.238
29.900;0.236
29.950;0.235
30.000;0.234
30.050;0.231
30.100;0.230
30.150;0.228
30.200;0.227
30.250;0.226
30.300;0.224
30.350;0.223
30.400;0.222
30.450;0.220
30.500;0.218
30.550;0.217
30.600;0.216
30.650;0.215
30.700;0.214
30.750;0.212
30.800;0.210
30.850;0.209
30.900;0.207
30.950;0.207
31.000;0.204
31.050;0.203
31.100;0.202
31.150;0.200
31.200;0.199
31.250;0.198
31.300;0.196
31.350;0.196
31.400;0.195
31.450;0.193
31.500;0.192
31.550;0.190
31.600;0.189
31.650;0.188
31.700;0.188
31.750;0.186
31.800;0.184
31.850;0.183
31.900;0.182
31.950;0.181
32.000;0.181
32.050;0.180
32.100;0.179
32.150;0.177
32.200;0.176
32.250;0.175
32.300;0.173
32.350;0.172
32.400;0.172
32.450;0.171
32.500;0.169
32.550;0.168
32.600;0.166
32.650;0.165
32.700;0.165
32.750;0.165
32.800;0.163
32.850;0.162
32.900;0.160
32.950;0.160
33.000;0.159
33.050;0.157
33.100;0.157
33.150;0.156
33.200;0.155
33.250;0.154
33.300;0.152
33.350;0.152
33.400;0.150
33.450;0.149
33.500;0.149
33.550;0.149
33.600;0.147
33.650;0.145
33.700;0.145
33.750;0.143
33.800;0.143
33.850;0.142
33.900;0.141
33.950;0.140
34.000;0.139
34.050;0.138
34.100;0.137
34.150;0.136
34.200;0.135
34.250;0.134
34.300;0.133
34.350;0.132
34.400;0.132
34.450;0.130
34.500;0.130
34.550;0.130
34.600;0.128
34.650;0.127
34.700;0.126
34.750;0.126
34.800;0.125
34.850;0.125
34.900;0.124
34.950;0.123
35.000;0.121
35.050;0.121
35.100;0.119
35.150;0.119
35.200;0.119
35.250;0.118
35.300;0.118
35.350;0.117
35.400;0.115
35.450;0.114
35.500;0.113
35.550;0.113
35.600;0.113
35.650;0.112
35.700;0.111
35.750;0.110
35.800;0.109
35.850;0.109
35.900;0.108
35.950;0.107
36.000;0.107
36.050;0.106
36.100;0.105
36.150;0.104
36.200;0.104
36.250;0.103
36.300;0.103
36.350;0.103
36.400;0.102
36.450;0.101
36.500;0.100
36.550;0.100
36.600;0.099
36.650;0.099
36.700;0.098
36.750;0.098
36.800;0.096
36.850;0.096
36.900;0.096
36.950;0.095
37.000;0.094
37.050;0.094
37.100;0.093
37.150;0.093
37.200;0.092
37.250;0.092
37.300;0.091
37.350;0.091
37.400;0.090
37.450;0.089
37.500;0.089
37.550;0.088
37.600;0.087
37.650;0.087
37.700;0.086
37.750;0.086
37.800;0.086
37.850;0.085
37.900;0.084
37.950;0.084
38.000;0.084
38.050;0.083
38.100;0.083
38.150;0.082
38.200;0.081
38.250;0.080
38.300;0.079
38.350;0.079
38.400;0.078
38.450;0.078
38.500;0.078
38.550;0.078
38.600;0.076
38.650;0.076
38.700;0.075
38.750;0.074
38.800;0.075
38.850;0.074
38.900;0.073
38.950;0.072
39.000;0.071
39.050;0.071
39.100;0.071
39.150;0.071
39.200;0.070
39.250;0.069
39.300;0.069
39.350;0.069
39.400;0.068
39.450;0.068
39.500;0.067
39.550;0.067
39.600;0.067
39.650;0.066
39.700;0.066
39.750;0.066
39.800;0.065
39.850;0.065
39.900;0.065
39.950;0.064
40.000;0.063
40.050;0.063
40.100;0.063
40.150;0.062
40.200;0.063
40.250;0.062
40.300;0.062
40.350;0.061
40.400;0.061
40.450;0.060
40.500;0.060
40.550;0.060
40.600;0.060
40.650;0.059
40.700;0.059
40.750;0.058
40.800;0.057
40.850;0.058
40.900;0.057
40.950;0.057
41.000;0.057
41.050;0.056
41.100;0.055
41.150;0.055
41.200;0.055
41.250;0.055
41.300;0.055
41.350;0.055
41.400;0.054
41.450;0.054
41.500;0.054
41.550;0.054
41.600;0.054
41.650;0.054
41.700;0.053
41.750;0.052
41.800;0.052
41.850;0.051
41.900;0.051
41.950;0.051
42.000;0.051
42.050;0.051
42.100;0.050
42.150;0.049
42.200;0.049
42.250;0.049
42.300;0.048
42.350;0.049
42.400;0.048
42.450;0.048
42.500;0.047
42.550;0.046
42.600;0.046
42.650;0.046
42.700;0.046
42.750;0.046
42.800;0.045
42.850;0.045
42.900;0.045
42.950;0.044
43.000;0.044
43.050;0.044
43.100;0.044
43.150;0.043
43.200;0.043
43.250;0.041
43.300;0.042
43.350;0.042
43.400;0.042
43.450;0.042
43.500;0.041
43.550;0.041
43.600;0.040
43.650;0.040
43.700;0.040
43.750;0.040
43.800;0.040
43.850;0.040
43.900;0.039
43.950;0.039
44.000;0.039
44.050;0.038
44.100;0.039
44.150;0.039
44.200;0.038
44.250;0.038
44.300;0.037
44.350;0.037
44.400;0.037
44.450;0.037
44.500;0.037
44.550;0.036
44.600;0.036
44.650;0.036
44.700;0.035
44.750;0.035
44.800;0.036
44.850;0.036
44.900;0.035
44.950;0.034
45.000;0.035
45.050;0.034
45.100;0.033
45.150;0.034
45.200;0.034
45.250;0.034
45.300;0.033
45.350;0.032
45.400;0.033
45.450;0.033
45.500;0.032
45.550;0.033
45.600;0.033
45.650;0.032
45.700;0.031
45.750;0.031
45.800;0.031
45.850;0.031
45.900;0.031
45.950;0.031
46.000;0.031
46.050;0.031
46.100;0.030
46.150;0.030
46.200;0.031
46.250;0.030
46.300;0.031
46.350;0.030
46.400;0.030
46.450;0.030
46.500;0.030
46.550;0.029
46.600;0.029
46.650;0.029
46.700;0.029
46.750;0.029
46.800;0.028
46.850;0.028
46.900;0.028
46.950;0.029
47.000;0.028
47.050;0.028
47.100;0.027
47.150;0.027
47.200;0.026
47.250;0.026
47.300;0.026
47.350;0.026
47.400;0.026
47.450;0.025
47.500;0.025
47.550;0.025
47.600;0.025
47.650;0.025
47.700;0.025
47.750;0.025
47.800;0.024
47.850;0.024
47.900;0.024
47.950;0.024
48.000;0.024
48.050;0.024
48.100;0.024
48.150;0.024
48.200;0.023
48.250;0.023
48.300;0.023
48.350;0.023
48.400;0.023
48.450;0.023
48.500;0.023
48.550;0.022
48.600;0.022
48.650;0.022
48.700;0.023
48.750;0.023
48.800;0.023
48.850;0.022
48.900;0.021
48.950;0.022
49.000;0.022
49.050;0.022
49.100;0.022
49.150;0.022
49.200;0.021
49.250;0.020
49.300;0.020
49.350;0.020
49.400;0.020
49.450;0.021
49.500;0.021
49.550;0.020
49.600;0.020
49.650;0.020
49.700;0.019
49.750;0.019
49.800;0.020
49.850;0.020
49.900;0.020
49.950;0.019
50.000;0.019
50.050;0.019
50.100;0.019
50.150;0.019
50.200;0.019
50.250;0.019
50.300;0.019
50.350;0.019
50.400;0.019
50.450;0.018
50.500;0.018
50.550;0.018
50.600;0.017
50.650;0.017
50.700;0.017
50.750;0.017
50.800;0.017
50.850;0.017
50.900;0.017
50.950;0.017
51.000;0.016
51.050;0.016
51.100;0.017
51.150;0.016
51.200;0.017
51.250;0.017
51.300;0.017
51.350;0.016
51.400;0.016
51.450;0.016
51.500;0.016
51.550;0.016
51.600;0.016
51.650;0.016
51.700;0.016
51.750;0.015
51.800;0.015
51.850;0.016
51.900;0.015
51.950;0.015
52.000;0.015
52.050;0.016
52.100;0.015
52.150;0.014
52.200;0.015
52.250;0.015
52.300;0.015
52.350;0.015
52.400;0.014
52.450;0.014
52.500;0.013
52.550;0.014
52.600;0.014
52.650;0.014
52.700;0.014
52.750;0.014
52.800;0.014
52.850;0.014
52.900;0.013
52.950;0.013
53.000;0.014
53.050;0.014
53.100;0.013
53.150;0.013
53.200;0.013
53.250;0.013
53.300;0.013
53.350;0.013
53.400;0.013
53.450;0.013
53.500;0.012
53.550;0.011
53.600;0.012
53.650;0.012
53.700;0.012
53.750;0.012
53.800;0.012
53.850;0.011
53.900;0.011
53.950;0.011
54.000;0.011
54.050;0.011
54.100;0.011
54.150;0.012
54.200;0.011
54.250;0.011
54.300;0.010
54.350;0.011
54.400;0.011
54.450;0.010
54.500;0.011
54.550;0.011
54.600;0.011
54.650;0.011
54.700;0.010
54.750;0.010
54.800;0.010
54.850;0.010
54.900;0.010
54.950;0.010
55.000;0.010
55.050;0.009
55.100;0.010
55.150;0.010
55.200;0.010
55.250;0.010
55.300;0.010
55.350;0.009
55.400;0.010
55.450;0.010
55.500;0.010
55.550;0.009
55.600;0.010
55.650;0.009
55.700;0.009
55.750;0.009
55.800;0.010
55.850;0.009
55.900;0.009
55.950;0.009
56.000;0.009
56.050;0.009
56.100;0.009
56.150;0.009
56.200;0.009
56.250;0.009
56.300;0.009
56.350;0.009
56.400;0.009
56.450;0.008
56.500;0.008
56.550;0.009
56.600;0.008
56.650;0.008
56.700;0.008
56.750;0.008
56.800;0.008
56.850;0.008
56.900;0.008
56.950;0.008
57.000;0.009
57.050;0.009
57.100;0.009
57.150;0.008
57.200;0.008
57.250;0.008
57.300;0.008
57.350;0.009
57.400;0.008
57.450;0.008
57.500;0.008
57.550;0.007
57.600;0.008
57.650;0.008
57.700;0.008
57.750;0.008
57.800;0.008
57.850;0.008
57.900;0.008
57.950;0.007
58.000;0.008
58.050;0.007
58.100;0.008
58.150;0.007
58.200;0.007
58.250;0.006
58.300;0.007
58.350;0.007
58.400;0.007
58.450;0.007
58.500;0.008
58.550;0.007
58.600;0.007
58.650;0.007
58.700;0.008
58.750;0.007
58.800;0.008
58.850;0.007
58.900;0.007
58.950;0.006
59.000;0.006
59.050;0.006
59.100;0.007
59.150;0.007
59.200;0.007
59.250;0.007
59.300;0.007
59.350;0.007
59.400;0.006
59.450;0.007
59.500;0.007
59.550;0.006
59.600;0.007
59.650;0.006
59.700;0.006
59.750;0.006
59.800;0.006
59.850;0.006
59.900;0.006
59.950;0.006
60.000;0.006
60.050;0.006
60.100;0.006
60.150;0.006
60.200;0.006
60.250;0.006
60.300;0.006
60.350;0.005
60.400;0.006
60.450;0.006
60.500;0.005
60.550;0.005
60.600;0.006
60.650;0.006
60.700;0.006
60.750;0.005
60.800;0.005
60.850;0.005
60.900;0.005
60.950;0.006
61.000;0.006
61.050;0.006
61.100;0.005
61.150;0.005
61.200;0.006
61.250;0.006
61.300;0.006
61.350;0.006
61.400;0.005
61.450;0.005
61.500;0.005
61.550;0.005
61.600;0.005
61.650;0.005
61.700;0.006
61.750;0.006
61.800;0.005
61.850;0.005
61.900;0.005
61.950;0.005
62.000;0.005
62.050;0.005
62.100;0.006
62.150;0.005
62.200;0.006
62.250;0.005
62.300;0.005
62.350;0.005
62.400;0.005
62.450;0.005
62.500;0.005
62.550;0.005
62.600;0.004
62.650;0.005
62.700;0.004
62.750;0.004
62.800;0.005
62.850;0.004
62.900;0.004
62.950;0.004
63.000;0.004
63.050;0.004
63.100;0.004
63.150;0.005
63.200;0.005
63.250;0.004
63.300;0.004
63.350;0.004
63.400;0.004
63.450;0.004
63.500;0.005
63.550;0.005
63.600;0.004
63.650;0.004
63.700;0.004
63.750;0.004
63.800;0.004
63.850;0.005
63.900;0.005
63.950;0.004
64.000;0.004
64.050;0.004
64.100;0.004
64.150;0.004
64.200;0.004
64.250;0.005
64.300;0.005
64.350;0.004
64.400;0.004
64.450;0.004
64.500;0.004
64.550;0.005
64.600;0.005
64.650;0.005
64.700;0.004
64.750;0.004
64.800;0.004
64.850;0.004
64.900;0.004
64.950;0.005
65.000;0.005
65.050;0.005
65.100;0.004
65.150;0.004
65.200;0.004
65.250;0.005
65.300;0.005
65.350;0.005
65.400;0.005
65.450;0.004
65.500;0.004
65.550;0.004
65.600;0.004
65.650;0.004
65.700;0.004
65.750;0.004
65.800;0.004
65.850;0.004
65.900;0.004
65.950;0.004
66.000;0.004
66.050;0.004
66.100;0.004
66.150;0.004
66.200;0.004
66.250;0.004
66.300;0.004
66.350;0.004
66.400;0.004
66.450;0.004
66.500;0.004
66.550;0.003
66.600;0.003
66.650;0.003
66.700;0.004
66.750;0.004
66.800;0.004
66.850;0.004
66.900;0.003
66.950;0.003
67.000;0.003
67.050;0.004
67.100;0.004
67.150;0.004
67.200;0.004
67.250;0.003
67.300;0.003
67.350;0.003
67.400;0.003
67.450;0.004
67.500;0.004
67.550;0.003
67.600;0.003
67.650;0.003
67.700;0.003
67.750;0.004
67.800;0.004
67.850;0.004
67.900;0.003
67.950;0.003
68.000;0.003
68.050;0.003
68.100;0.004
68.150;0.004
68.200;0.004
68.250;0.004
68.300;0.004
68.350;0.004
68.400;0.004
68.450;0.003
68.500;0.004
68.550;0.003
68.600;0.003
68.650;0.003
68.700;0.002
68.750;0.002
68.800;0.003
68.850;0.003
68.900;0.003
68.950;0.003
69.000;0.003
69.050;0.003
69.100;0.003
69.150;0.003
69.200;0.003
69.250;0.003
69.300;0.004
69.350;0.004
69.400;0.003
69.450;0.003
69.500;0.003
69.550;0.003
69.600;0.003
69.650;0.003
69.700;0.003
69.750;0.003
69.800;0.003
69.850;0.003
69.900;0.003
69.950;0.002
70.000;0.003
70.050;0.003
70.100;0.003
70.150;0.002
70.200;0.002
70.250;0.003
70.300;0.003
70.350;0.003
70.400;0.003
70.450;0.003
70.500;0.002
70.550;0.003
70.600;0.003
70.650;0.002
70.700;0.003
70.750;0.003
70.800;0.003
70.850;0.002
70.900;0.002
70.950;0.003
71.000;0.002
71.050;0.003
71.100;0.003
71.150;0.003
71.200;0.002
71.250;0.002
71.300;0.003
71.350;0.003
71.400;0.002
71.450;0.003
71.500;0.003
71.550;0.003
71.600;0.003
71.650;0.002
71.700;0.002
71.750;0.002
71.800;0.002
71.850;0.003
71.900;0.003
71.950;0.003
72.000;0.003
72.050;0.002
72.100;0.003
72.150;0.002
72.200;0.003
72.250;0.003
72.300;0.002
72.350;0.002
72.400;0.002
72.450;0.002
72.500;0.003
72.550;0.003
72.600;0.002
72.650;0.002
72.700;0.002
72.750;0.002
72.800;0.003
72.850;0.002
72.900;0.002
72.950;0.002
73.000;0.002
73.050;0.002
73.100;0.002
73.150;0.003
73.200;0.002
73.250;0.003
73.300;0.003
73.350;0.003
73.400;0.002
73.450;0.003
73.500;0.002
73.550;0.002
73.600;0.003
73.650;0.003
73.700;0.003
73.750;0.003
73.800;0.002
73.850;0.002
73.900;0.002
73.950;0.003
74.000;0.003
74.050;0.003
74.100;0.003
74.150;0.003
74.200;0.002
74.250;0.003
74.300;0.003
74.350;0.004
74.400;0.004
74.450;0.003
74.500;0.003
74.550;0.003
74.600;0.003
74.650;0.003
74.700;0.003
74.750;0.004
74.800;0.003
74.850;0.002
74.900;0.002
74.950;0.003
75.000;0.003
75.050;0.003
75.100;0.003
75.150;0.003
75.200;0.002
75.250;0.002
75.300;0.003
75.350;0.002
75.400;0.003
75.450;0.003
75.500;0.003
75.550;0.003
75.600;0.003
75.650;0.003
75.700;0.003
75.750;0.003
75.800;0.003
75.850;0.004
75.900;0.003
75.950;0.003
76.000;0.003
76.050;0.003
76.100;0.003
76.150;0.003
76.200;0.003
76.250;0.003
76.300;0.003
76.350;0.002
76.400;0.003
76.450;0.002
76.500;0.002
76.550;0.003
76.600;0.003
76.650;0.002
76.700;0.002
76.750;0.002
76.800;0.002
76.850;0.003
76.900;0.003
76.950;0.003
77.000;0.002
77.050;0.002
77.100;0.002
77.150;0.002
77.200;0.002
77.250;0.003
77.300;0.003
77.350;0.003
77.400;0.002
77.450;0.002
77.500;0.003
77.550;0.003
77.600;0.003
77.650;0.003
77.700;0.002
77.750;0.002
77.800;0.002
77.850;0.002
77.900;0.003
77.950;0.003
78.000;0.002
78.050;0.002
78.100;0.002
78.150;0.002
78.200;0.002
78.250;0.002
78.300;0.002
78.350;0.002
78.400;0.002
78.450;0.002
78.500;0.002
78.550;0.002
78.600;0.003
78.650;0.003
78.700;0.003
78.750;0.003
78.800;0.002
78.850;0.002
78.900;0.002
78.950;0.002
79.000;0.003
79.050;0.002
79.100;0.003
79.150;0.002
79.200;0.002
79.250;0.002
79.300;0.002
79.350;0.003
79.400;0.003
79.450;0.003
79.500;0.002
79.550;0.002
79.600;0.002
79.650;0.002
79.700;0.002
79.750;0.003
79.800;0.002
79.850;0.002
79.900;0.002
79.950;0.002
80.000;0.002
80.050;0.002
80.100;0.002
80.150;0.003
80.200;0.002
80.250;0.002
80.300;0.002
80.350;0.002
80.400;0.002
80.450;0.002
80.500;0.003
80.550;0.003
80.600;0.002
80.650;0.002
80.700;0.002
80.750;0.002
80.800;0.002
80.850;0.002
80.900;0.002
80.950;0.002
81.000;0.002
81.050;0.001
81.100;0.002
81.150;0.002
81.200;0.002
81.250;0.003
81.300;0.003
81.350;0.002
81.400;0.002
81.450;0.002
81.500;0.003
81.550;0.003
81.600;0.003
81.650;0.003
81.700;0.002
81.750;0.002
81.800;0.002
81.850;0.002
81.900;0.002
81.950;0.003
82.000;0.002
82.050;0.002
82.100;0.002
82.150;0.002
82.200;0.002
82.250;0.002
82.300;0.003
82.350;0.002
82.400;0.002
82.450;0.002
82.500;0.002
82.550;0.002
82.600;0.002
82.650;0.002
82.700;0.002
82.750;0.002
82.800;0.002
82.850;0.002
82.900;0.003
82.950;0.003
83.000;0.003
83.050;0.003
83.100;0.002
83.150;0.002
83.200;0.002
83.250;0.002
83.300;0.002
83.350;0.003
83.400;0.003
83.450;0.002
83.500;0.002
83.550;0.002
83.600;0.002
83.650;0.002
83.700;0.003
83.750;0.003
83.800;0.003
83.850;0.002
83.900;0.002
83.950;0.002
84.000;0.002
84.050;0.002
84.100;0.003
84.150;0.003
84.200;0.002
84.250;0.002
84.300;0.002
84.350;0.002
84.400;0.002
84.450;0.002
84.500;0.002
84.550;0.002
84.600;0.002
84.650;0.002
84.700;0.002
84.750;0.002
84.800;0.003
84.850;0.003
84.900;0.003
84.950;0.002
85.000;0.002
85.050;0.002
85.100;0.002
85.150;0.003
85.200;0.002
85.250;0.003
85.300;0.002
85.350;0.002
85.400;0.002
85.450;0.002
85.500;0.003
85.550;0.002
85.600;0.002
85.650;0.002
85.700;0.001
85.750;0.002
85.800;0.002
85.850;0.002
85.900;0.002
85.950;0.003
86.000;0.002
86.050;0.002
86.100;0.002
86.150;0.002
86.200;0.002
86.250;0.002
86.300;0.002
86.350;0.002
86.400;0.002
86.450;0.002
86.500;0.002
86.550;0.002
86.600;0.002
86.650;0.003
86.700;0.002
86.750;0.002
86.800;0.002
86.850;0.002
86.900;0.002
86.950;0.002
87.000;0.002
87.050;0.002
87.100;0.002
87.150;0.002
87.200;0.002
87.250;0.002
87.300;0.002
87.350;0.003
87.400;0.003
87.450;0.002
87.500;0.002
87.550;0.002
87.600;0.002
87.650;0.002
87.700;0.002
87.750;0.003
87.800;0.002
87.850;0.002
87.900;0.002
87.950;0.002
88.000;0.002
88.050;0.002
88.100;0.002
88.150;0.002
88.200;0.002
88.250;0.002
88.300;0.002
88.350;0.002
88.400;0.002
88.450;0.003
88.500;0.003
88.550;0.002
88.600;0.002
88.650;0.002
88.700;0.002
88.750;0.002
88.800;0.003
88.850;0.003
88.900;0.002
88.950;0.002
89.000;0.002
89.050;0.002
89.100;0.002
89.150;0.002
89.200;0.003
89.250;0.002
89.300;0.002
89.350;0.002
89.400;0.002
89.450;0.002
89.500;0.002
89.550;0.003
89.600;0.002
89.650;0.002
89.700;0.002
89.750;0.002
89.800;0.002
89.850;0.003
89.900;0.003
89.950;0.002
90.000;0.002
90.050;0.002
90.100;0.002
90.150;0.002
90.200;0.002
90.250;0.002
90.300;0.002
90.350;0.002
90.400;0.002
90.450;0.002
90.500;0.002
90.550;0.002
90.600;0.002
90.650;0.002
90.700;0.002
90.750;0.002
90.800;0.002
90.850;0.002
90.900;0.002
90.950;0.003
91.000;0.003
91.050;0.003
91.100;0.002
91.150;0.002
91.200;0.002
91.250;0.002
91.300;0.003
91.350;0.003
91.400;0.003
91.450;0.002
91.500;0.002
91.550;0.002
91.600;0.002
91.650;0.002
91.700;0.002
91.750;0.003
91.800;0.002
91.850;0.002
91.900;0.002
91.950;0.002
92.000;0.002
92.050;0.003
92.100;0.003
92.150;0.002
92.200;0.002
92.250;0.002
92.300;0.002
92.350;0.002
92.400;0.002
92.450;0.003
92.500;0.002
92.550;0.002
92.600;0.001
92.650;0.002
92.700;0.002
92.750;0.002
92.800;0.002
92.850;0.002
92.900;0.002
92.950;0.002
93.000;0.002
93.050;0.002
93.100;0.003
93.150;0.003
93.200;0.002
93.250;0.002
93.300;0.002
93.350;0.002
93.400;0.002
93.450;0.002
93.500;0.003
93.550;0.002
93.600;0.002
93.650;0.002
93.700;0.002
93.750;0.002
93.800;0.003
93.850;0.002
93.900;0.003
93.950;0.002
94.000;0.002
94.050;0.002
94.100;0.002
94.150;0.002
94.200;0.003
94.250;0.003
94.300;0.002
94.350;0.002
94.400;0.002
94.450;0.002
94.500;0.002
94.550;0.003
94.600;0.002
94.650;0.003
94.700;0.002
94.750;0.002
94.800;0.002
94.850;0.002
94.900;0.003
94.950;0.002
95.000;0.002
95.050;0.002
95.100;0.002
95.150;0.002
95.200;0.002
95.250;0.002
95.300;0.002
95.350;0.002
95.400;0.001
95.450;0.002
95.500;0.001
95.550;0.002
95.600;0.002
95.650;0.002
95.700;0.002
95.750;0.002
95.800;0.002
95.850;0.002
95.900;0.002
95.950;0.002
96.000;0.002
96.050;0.002
96.100;0.002
96.150;0.002
96.200;0.002
96.250;0.002
96.300;0.002
96.350;0.002
96.400;0.002
96.450;0.002
96.500;0.001
96.550;0.002
96.600;0.002
96.650;0.002
96.700;0.002
96.750;0.003
96.800;0.002
96.850;0.002
96.900;0.002
96.950;0.002
97.000;0.002
97.050;0.002
97.100;0.002
97.150;0.002
97.200;0.002
97.250;0.001
97.300;0.001
97.350;0.001
97.400;0.001
97.450;0.002
97.500;0.002
97.550;0.002
97.600;0.001
97.650;0.002
97.700;0.001
97.750;0.002
97.800;0.003
97.850;0.002
97.900;0.002
97.950;0.002
98.000;0.002
98.050;0.002
98.100;0.002
98.150;0.002
98.200;0.002
98.250;0.002
98.300;0.002
98.350;0.001
98.400;0.001
98.450;0.002
98.500;0.002
98.550;0.002
98.600;0.002
98.650;0.002
98.700;0.001
98.750;0.002
98.800;0.002
98.850;0.002
98.900;0.002
98.950;0.002
99.000;0.002
99.050;0.002
99.100;0.002
99.150;0.002
99.200;0.002
99.250;0.002
99.300;0.003
99.350;0.002
99.400;0.002
99.450;0.002
99.500;0.001
99.550;0.001
99.600;0.002
99.650;0.002
99.700;0.002
99.750;0.001
99.800;0.002
99.850;0.001
99.900;0.001
99.950;0.002
100.000;0.002
100.050;0.002
100.100;0.002
100.150;0.002
100.200;0.002
100.250;0.002
100.300;0.002
100.350;0.003
100.400;0.002
100.450;0.002
100.500;0.002
100.550;0.002
100.600;0.002
100.650;0.002
100.700;0.002
100.750;0.002
100.800;0.002
100.850;0.002
100.900;0.001
100.950;0.001
101.000;0.002
101.050;0.002
101.100;0.002
101.150;0.002
101.200;0.002
101.250;0.002
101.300;0.002
101.350;0.002
101.400;0.002
101.450;0.002
101.500;0.002
101.550;0.002
101.600;0.001
101.650;0.002
101.700;0.002
101.750;0.002
101.800;0.002
101.850;0.002
101.900;0.002
101.950;0.002
102.000;0.002
102.050;0.002
102.100;0.002
102.150;0.002
102.200;0.002
102.250;0.002
102.300;0.001
102.350;9.401E-4
102.400;0.002
102.450;0.002
102.500;0.002
102.550;0.002
102.600;0.001
102.650;0.001
102.700;0.002
102.750;0.002
102.800;0.001
102.850;0.002
102.900;0.002
102.950;0.002
103.000;0.002
103.050;0.001
103.100;0.002
103.150;0.002
103.200;0.002
103.250;0.002
103.300;0.002
103.350;0.002
103.400;0.001
103.450;0.002
103.500;0.002
103.550;0.001
103.600;0.002
103.650;0.002
103.700;0.002
103.750;0.001
103.800;0.001
103.850;0.002
103.900;0.002
103.950;0.002
104.000;0.002
104.050;0.002
104.100;0.001
104.150;0.002
104.200;0.002
104.250;0.002
104.300;0.002
104.350;0.002
104.400;0.002
104.450;0.002
104.500;0.001
104.550;0.002
104.600;0.001
104.650;0.001
104.700;0.002
104.750;0.002
104.800;9.401E-4
104.850;0.002
104.900;0.002
104.950;0.001
105.000;0.002
105.050;0.002
105.100;0.002
105.150;0.001
105.200;0.001
105.250;9.401E-4
105.300;0.001
105.350;0.002
105.400;0.002
105.450;0.002
105.500;0.002
105.550;0.001
105.600;0.001
105.650;0.002
105.700;0.002
105.750;0.002
105.800;0.002
105.850;0.002
105.900;0.002
105.950;0.001
106.000;0.001
106.050;0.002
106.100;0.002
106.150;0.002
106.200;0.002
106.250;0.001
106.300;0.002
106.350;0.001
106.400;0.001
106.450;0.002
106.500;0.002
106.550;0.002
106.600;0.002
106.650;0.002
106.700;0.001
106.750;0.001
106.800;0.001
106.850;0.002
106.900;0.002
106.950;0.002
107.000;0.002
107.050;0.001
107.100;0.001
107.150;0.001
107.200;0.002
107.250;0.002
107.300;0.001
107.350;0.001
107.400;0.001
107.450;0.001
107.500;0.001
107.550;0.002
107.600;0.002
107.650;0.002
107.700;0.001
107.750;0.002
107.800;0.001
107.850;0.002
107.900;0.002
107.950;0.002
108.000;0.002
108.050;0.002
108.100;0.002
108.150;0.001
108.200;0.002
108.250;0.002
108.300;0.001
108.350;0.001
108.400;9.401E-4
108.450;0.001
108.500;9.401E-4
108.550;0.001
108.600;9.401E-4
108.650;0.001
108.700;0.001
108.750;9.401E-4
108.800;9.401E-4
108.850;0.001
108.900;0.001
108.950;9.401E-4
109.000;0.002
109.050;0.002
109.100;0.001
109.150;0.001
109.200;0.001
109.250;0.002
109.300;0.001
109.350;0.001
109.400;0.002
109.450;0.002
109.500;0.001
109.550;0.001
109.600;0.002
109.650;0.001
109.700;0.002
109.750;0.002
109.800;0.002
109.850;0.002
109.900;0.002
109.950;0.001
110.000;0.002
110.050;0.002
110.100;0.002
110.150;0.002
110.200;0.002
110.250;0.002
110.300;0.001
110.350;0.002
110.400;0.002
110.450;0.002
110.500;0.002
110.550;0.002
110.600;0.002
110.650;0.001
110.700;0.002
110.750;0.002
110.800;0.002
110.850;0.002
110.900;0.002
110.950;0.001
111.000;0.001
111.050;0.001
111.100;0.002
111.150;0.002
111.200;0.002
111.250;0.002
111.300;0.002
111.350;0.001
111.400;0.002
111.450;0.002
111.500;0.002
111.550;0.002
111.600;0.002
111.650;0.001
111.700;0.001
111.750;9.401E-4
111.800;0.001
111.850;0.001
111.900;0.002
111.950;0.002
112.000;0.002
112.050;0.002
112.100;0.001
112.150;0.001
112.200;0.002
112.250;0.002
112.300;0.002
112.350;0.002
112.400;0.002
112.450;0.002
112.500;0.002
112.550;0.001
112.600;0.002
112.650;0.002
112.700;0.002
112.750;0.001
112.800;0.001
112.850;0.001
112.900;0.001
112.950;0.002
113.000;0.002
113.050;0.002
113.100;0.002
113.150;0.002
113.200;0.001
113.250;0.002
113.300;0.002
113.350;0.002
113.400;0.002
113.450;0.002
113.500;0.001
113.550;0.001
113.600;0.002
113.650;0.002
113.700;0.002
113.750;0.002
113.800;0.003
113.850;0.002
113.900;0.001
113.950;0.002
114.000;0.002
114.050;0.002
114.100;0.003
114.150;0.003
114.200;0.002
114.250;0.003
114.300;0.002
114.350;0.002
114.400;0.002
114.450;0.003
114.500;0.002
114.550;0.002
114.600;0.002
114.650;0.002
114.700;0.002
114.750;0.002
114.800;0.003
114.850;0.003
114.900;0.002
114.950;0.002
115.000;0.002
115.050;0.002
115.100;0.002
115.150;0.002
115.200;0.002
115.250;0.002
115.300;0.002
115.350;0.001
115.400;0.002
115.450;0.002
115.500;0.002
115.550;0.002
115.600;0.002
115.650;0.002
115.700;0.001
115.750;0.002
115.800;0.002
115.850;0.002
115.900;0.002
115.950;0.002
116.000;0.002
116.050;0.001
116.100;0.001
116.150;0.002
116.200;0.002
116.250;0.002
116.300;0.002
116.350;0.002
116.400;0.002
116.450;0.001
116.500;0.002
116.550;0.002
116.600;0.002
116.650;0.002
116.700;0.002
116.750;0.002
116.800;0.002
116.850;0.001
116.900;0.002
116.950;0.002
117.000;0.002
117.050;0.002
117.100;0.002
117.150;0.002
117.200;0.002
117.250;0.002
117.300;0.002
117.350;0.002
117.400;0.002
117.450;0.002
117.500;0.002
117.550;0.002
117.600;0.002
117.650;0.002
117.700;0.003
117.750;0.003
117.800;0.002
117.850;0.002
117.900;0.002
117.950;0.002
118.000;0.002
118.050;0.003
118.100;0.003
118.150;0.002
118.200;0.002
118.250;0.002
118.300;0.002
118.350;0.001
118.400;0.002
118.450;0.002
118.500;0.002
118.550;0.002
118.600;0.002
118.650;0.002
118.700;0.002
118.750;0.003
118.800;0.002
118.850;0.002
118.900;0.001
118.950;0.001
119.000;0.002
119.050;0.002
119.100;0.002
119.150;0.002
119.200;0.002
119.250;0.002
119.300;0.002
119.350;0.002
119.400;0.001
119.450;0.002
119.500;0.002
119.550;0.002
119.600;0.001
119.650;0.001
119.700;0.002
119.750;0.001
119.800;0.001
119.850;0.002
119.900;0.003
119.950;0.002
120.000;0.002
120.050;0.001
120.100;0.002
120.150;0.002
120.200;0.002
120.250;0.002
120.300;0.002
120.350;0.003
120.400;0.002
120.450;0.002
120.500;0.002
120.550;0.002
120.600;0.002
120.650;0.002
120.700;0.002
120.750;0.001
120.800;0.002
120.850;0.001
120.900;0.002
120.950;0.002
121.000;0.002
121.050;0.001
121.100;0.001
121.150;0.001
121.200;0.002
121.250;0.001
121.300;0.002
121.350;0.002
121.400;0.002
121.450;0.001
121.500;0.002
121.550;0.002
121.600;0.002
121.650;0.002
121.700;0.002
121.750;0.002
121.800;0.002
121.850;0.002
