"Czas (s)","Napięcie (V)"
0.150,10.738
0.200,12.093
0.250,12.052
0.300,12.013
0.350,11.971
0.400,11.932
0.450,11.892
0.500,11.853
0.550,11.814
0.600,11.775
0.650,11.735
0.700,11.697
0.750,11.658
0.800,11.621
0.850,11.581
0.900,11.545
0.950,11.508
1.000,11.468
1.050,11.429
1.100,11.391
1.150,11.352
1.200,11.316
1.250,11.278
1.300,11.242
1.350,11.204
1.400,11.167
1.450,11.130
1.500,11.093
1.550,11.058
1.600,11.023
1.650,10.984
1.700,10.948
1.750,10.911
1.800,10.874
1.850,10.838
1.900,10.802
1.950,10.766
2.000,10.730
2.050,10.696
2.100,10.662
2.150,10.626
2.200,10.591
2.250,10.556
2.300,10.523
2.350,10.486
2.400,10.450
2.450,10.416
2.500,10.380
2.550,10.346
2.600,10.312
2.650,10.278
2.700,10.243
2.750,10.209
2.800,10.178
2.850,10.144
2.900,10.111
2.950,10.078
3.000,10.045
3.050,10.010
3.100,9.975
3.150,9.942
3.200,9.910
3.250,9.877
3.300,9.845
3.350,9.812
3.400,9.779
3.450,9.746
3.500,9.714
3.550,9.683
3.600,9.652
3.650,9.621
3.700,9.590
3.750,9.559
3.800,9.524
3.850,9.492
3.900,9.461
3.950,9.429
4.000,9.398
4.050,9.367
4.100,9.337
4.150,9.307
4.200,9.275
4.250,9.244
4.300,9.214
4.350,9.184
4.400,9.154
4.450,9.124
4.500,9.094
4.550,9.065
4.600,9.033
4.650,9.002
4.700,8.972
4.750,8.942
4.800,8.912
4.850,8.884
4.900,8.854
4.950,8.825
5.000,8.795
5.050,8.767
5.100,8.737
5.150,8.709
5.200,8.681
5.250,8.652
5.300,8.625
5.350,8.595
5.400,8.568
5.450,8.537
5.500,8.509
5.550,8.481
5.600,8.454
5.650,8.424
5.700,8.397
5.750,8.368
5.800,8.342
5.850,8.313
5.900,8.287
5.950,8.259
6.000,8.232
6.050,8.205
6.100,8.178
6.150,8.152
6.200,8.125
6.250,8.100
6.300,8.072
6.350,8.043
6.400,8.016
6.450,7.989
6.500,7.963
6.550,7.936
6.600,7.910
6.650,7.884
6.700,7.859
6.750,7.832
6.800,7.807
6.850,7.781
6.900,7.755
6.950,7.730
7.000,7.704
7.050,7.678
7.100,7.656
7.150,7.629
7.200,7.604
7.250,7.577
7.300,7.551
7.350,7.526
7.400,7.502
7.450,7.477
7.500,7.452
7.550,7.428
7.600,7.404
7.650,7.379
7.700,7.355
7.750,7.330
7.800,7.306
7.850,7.282
7.900,7.258
7.950,7.235
8.000,7.211
8.050,7.186
8.100,7.164
8.150,7.140
8.200,7.117
8.250,7.093
8.300,7.069
8.350,7.045
8.400,7.020
8.450,6.999
8.500,6.974
8.550,6.950
8.600,6.929
8.650,6.906
8.700,6.883
8.750,6.860
8.800,6.837
8.850,6.814
8.900,6.792
8.950,6.770
9.000,6.748
9.050,6.727
9.100,6.704
9.150,6.683
9.200,6.660
9.250,6.638
9.300,6.617
9.350,6.593
9.400,6.571
9.450,6.549
9.500,6.527
9.550,6.506
9.600,6.484
9.650,6.462
9.700,6.443
9.750,6.421
9.800,6.399
9.850,6.378
9.900,6.357
9.950,6.336
10.000,6.315
10.050,6.293
10.100,6.274
10.150,6.253
10.200,6.233
10.250,6.212
10.300,6.192
10.350,6.171
10.400,6.151
10.450,6.131
10.500,6.109
10.550,6.088
10.600,6.069
10.650,6.048
10.700,6.029
10.750,6.008
10.800,5.987
10.850,5.968
10.900,5.950
10.950,5.929
11.000,5.910
11.050,5.890
11.100,5.870
11.150,5.852
11.200,5.832
11.250,5.812
11.300,5.794
11.350,5.774
11.400,5.756
11.450,5.737
11.500,5.718
11.550,5.699
11.600,5.681
11.650,5.663
11.700,5.645
11.750,5.623
11.800,5.604
11.850,5.586
11.900,5.566
11.950,5.549
12.000,5.531
12.050,5.512
12.100,5.494
12.150,5.477
12.200,5.459
12.250,5.440
12.300,5.422
12.350,5.403
12.400,5.386
12.450,5.368
12.500,5.350
12.550,5.333
12.600,5.315
12.650,5.299
12.700,5.281
12.750,5.263
12.800,5.246
12.850,5.228
12.900,5.212
12.950,5.196
13.000,5.178
13.050,5.161
13.100,5.144
13.150,5.126
13.200,5.108
13.250,5.092
13.300,5.075
13.350,5.058
13.400,5.041
13.450,5.024
13.500,5.007
13.550,4.991
13.600,4.975
13.650,4.958
13.700,4.941
13.750,4.926
13.800,4.909
13.850,4.892
13.900,4.876
13.950,4.861
14.000,4.844
14.050,4.828
14.100,4.814
14.150,4.797
14.200,4.782
14.250,4.765
14.300,4.750
14.350,4.734
14.400,4.720
14.450,4.704
14.500,4.690
14.550,4.673
14.600,4.658
14.650,4.640
14.700,4.625
14.750,4.610
14.800,4.595
14.850,4.580
14.900,4.565
14.950,4.550
15.000,4.533
15.050,4.519
15.100,4.505
15.150,4.489
15.200,4.475
15.250,4.459
15.300,4.445
15.350,4.430
15.400,4.416
15.450,4.401
15.500,4.386
15.550,4.372
15.600,4.358
15.650,4.343
15.700,4.329
15.750,4.315
15.800,4.301
15.850,4.286
15.900,4.272
15.950,4.258
16.000,4.245
16.050,4.232
16.100,4.216
16.150,4.203
16.200,4.189
16.250,4.176
16.300,4.161
16.350,4.147
16.400,4.133
16.450,4.120
16.500,4.105
16.550,4.091
16.600,4.079
16.650,4.065
16.700,4.051
16.750,4.038
16.800,4.025
16.850,4.011
16.900,3.999
16.950,3.986
17.000,3.972
17.050,3.959
17.100,3.945
17.150,3.933
17.200,3.919
17.250,3.907
17.300,3.893
17.350,3.880
17.400,3.868
17.450,3.855
17.500,3.844
17.550,3.831
17.600,3.819
17.650,3.806
17.700,3.793
17.750,3.780
17.800,3.767
17.850,3.756
17.900,3.745
17.950,3.730
18.000,3.719
18.050,3.706
18.100,3.694
18.150,3.681
18.200,3.669
18.250,3.657
18.300,3.645
18.350,3.633
18.400,3.620
18.450,3.608
18.500,3.596
18.550,3.584
18.600,3.573
18.650,3.560
18.700,3.548
18.750,3.538
18.800,3.525
18.850,3.514
18.900,3.503
18.950,3.490
19.000,3.480
19.050,3.469
19.100,3.457
19.150,3.446
19.200,3.435
19.250,3.422
19.300,3.411
19.350,3.400
19.400,3.389
19.450,3.378
19.500,3.367
19.550,3.356
19.600,3.345
19.650,3.334
19.700,3.323
19.750,3.311
19.800,3.301
19.850,3.289
19.900,3.279
19.950,3.269
20.000,3.258
20.050,3.246
20.100,3.236
20.150,3.226
20.200,3.215
20.250,3.205
20.300,3.194
20.350,3.181
20.400,3.171
20.450,3.160
20.500,3.150
20.550,3.140
20.600,3.129
20.650,3.118
20.700,3.109
20.750,3.099
20.800,3.088
20.850,3.078
20.900,3.067
20.950,3.057
21.000,3.047
21.050,3.037
21.100,3.028
21.150,3.018
21.200,3.007
21.250,2.997
21.300,2.988
21.350,2.977
21.400,2.968
21.450,2.959
21.500,2.948
21.550,2.938
21.600,2.928
21.650,2.919
21.700,2.909
21.750,2.901
21.800,2.892
21.850,2.881
21.900,2.872
21.950,2.863
22.000,2.854
22.050,2.844
22.100,2.835
22.150,2.826
22.200,2.817
22.250,2.807
22.300,2.797
22.350,2.787
22.400,2.780
22.450,2.770
22.500,2.761
22.550,2.751
22.600,2.744
22.650,2.734
22.700,2.725
22.750,2.716
22.800,2.708
22.850,2.697
22.900,2.688
22.950,2.679
23.000,2.670
23.050,2.661
23.100,2.653
23.150,2.643
23.200,2.633
23.250,2.625
23.300,2.618
23.350,2.609
23.400,2.600
23.450,2.591
23.500,2.582
23.550,2.574
23.600,2.565
23.650,2.557
23.700,2.548
23.750,2.541
23.800,2.533
23.850,2.524
23.900,2.515
23.950,2.506
24.000,2.498
24.050,2.490
24.100,2.482
24.150,2.474
24.200,2.466
24.250,2.457
24.300,2.449
24.350,2.441
24.400,2.433
24.450,2.425
24.500,2.418
24.550,2.410
24.600,2.401
24.650,2.393
24.700,2.385
24.750,2.378
24.800,2.370
24.850,2.363
24.900,2.355
24.950,2.347
25.000,2.340
25.050,2.331
25.100,2.323
25.150,2.316
25.200,2.308
25.250,2.301
25.300,2.295
25.350,2.288
25.400,2.279
25.450,2.271
25.500,2.264
25.550,2.256
25.600,2.250
25.650,2.242
25.700,2.235
25.750,2.228
25.800,2.220
25.850,2.211
25.900,2.203
25.950,2.196
26.000,2.189
26.050,2.181
26.100,2.174
26.150,2.168
26.200,2.160
26.250,2.152
26.300,2.145
26.350,2.139
26.400,2.132
26.450,2.125
26.500,2.118
26.550,2.111
26.600,2.104
26.650,2.096
26.700,2.089
26.750,2.082
26.800,2.076
26.850,2.069
26.900,2.062
26.950,2.055
27.000,2.049
27.050,2.042
27.100,2.035
27.150,2.028
27.200,2.021
27.250,2.015
27.300,2.009
27.350,2.002
27.400,1.995
27.450,1.989
27.500,1.983
27.550,1.975
27.600,1.969
27.650,1.962
27.700,1.955
27.750,1.949
27.800,1.942
27.850,1.936
27.900,1.930
27.950,1.925
28.000,1.918
28.050,1.910
28.100,1.904
28.150,1.898
28.200,1.892
28.250,1.886
28.300,1.880
28.350,1.874
28.400,1.868
28.450,1.862
28.500,1.855
28.550,1.850
28.600,1.843
28.650,1.837
28.700,1.831
28.750,1.826
28.800,1.820
28.850,1.813
28.900,1.807
28.950,1.802
29.000,1.796
29.050,1.790
29.100,1.784
29.150,1.778
29.200,1.772
29.250,1.766
29.300,1.761
29.350,1.755
29.400,1.749
29.450,1.744
29.500,1.738
29.550,1.732
29.600,1.726
29.650,1.719
29.700,1.713
29.750,1.708
29.800,1.702
29.850,1.696
29.900,1.691
29.950,1.686
30.000,1.680
30.050,1.674
30.100,1.668
30.150,1.662
30.200,1.656
30.250,1.652
30.300,1.647
30.350,1.642
30.400,1.635
30.450,1.630
30.500,1.624
30.550,1.620
30.600,1.614
30.650,1.609
30.700,1.603
30.750,1.598
30.800,1.593
30.850,1.587
30.900,1.583
30.950,1.577
31.000,1.571
31.050,1.567
31.100,1.562
31.150,1.557
31.200,1.552
31.250,1.547
31.300,1.541
31.350,1.536
31.400,1.531
31.450,1.526
31.500,1.521
31.550,1.516
31.600,1.511
31.650,1.506
31.700,1.501
31.750,1.496
31.800,1.491
31.850,1.487
31.900,1.481
31.950,1.476
32.000,1.471
32.050,1.467
32.100,1.461
32.150,1.457
32.200,1.452
32.250,1.447
32.300,1.442
32.350,1.438
32.400,1.433
32.450,1.427
32.500,1.422
32.550,1.418
32.600,1.414
32.650,1.409
32.700,1.405
32.750,1.401
32.800,1.396
32.850,1.391
32.900,1.386
32.950,1.382
33.000,1.379
33.050,1.374
33.100,1.369
33.150,1.364
33.200,1.359
33.250,1.355
33.300,1.350
33.350,1.346
33.400,1.342
33.450,1.337
33.500,1.332
33.550,1.328
33.600,1.323
33.650,1.320
33.700,1.316
33.750,1.312
33.800,1.308
33.850,1.303
33.900,1.298
33.950,1.294
34.000,1.289
34.050,1.285
34.100,1.281
34.150,1.278
34.200,1.273
34.250,1.269
34.300,1.264
34.350,1.261
34.400,1.257
34.450,1.253
34.500,1.249
34.550,1.245
34.600,1.240
34.650,1.235
34.700,1.231
34.750,1.226
34.800,1.223
34.850,1.218
34.900,1.215
34.950,1.210
35.000,1.206
35.050,1.202
35.100,1.198
35.150,1.195
35.200,1.191
35.250,1.187
35.300,1.183
35.350,1.179
35.400,1.174
35.450,1.170
35.500,1.166
35.550,1.163
35.600,1.159
35.650,1.156
35.700,1.152
35.750,1.148
35.800,1.144
35.850,1.139
35.900,1.136
35.950,1.133
36.000,1.129
36.050,1.125
36.100,1.122
36.150,1.117
36.200,1.113
36.250,1.110
36.300,1.106
36.350,1.103
36.400,1.100
36.450,1.096
36.500,1.092
36.550,1.089
36.600,1.084
36.650,1.081
36.700,1.078
36.750,1.075
36.800,1.072
36.850,1.068
36.900,1.065
36.950,1.060
37.000,1.056
37.050,1.053
37.100,1.049
37.150,1.045
37.200,1.042
37.250,1.039
37.300,1.036
37.350,1.032
37.400,1.028
37.450,1.026
37.500,1.022
37.550,1.019
37.600,1.016
37.650,1.013
37.700,1.009
37.750,1.005
37.800,1.001
37.850,0.998
37.900,0.995
37.950,0.992
38.000,0.989
38.050,0.986
38.100,0.982
38.150,0.979
38.200,0.976
38.250,0.973
38.300,0.969
38.350,0.966
38.400,0.963
38.450,0.960
38.500,0.957
38.550,0.954
38.600,0.951
38.650,0.949
38.700,0.946
38.750,0.942
38.800,0.939
38.850,0.935
38.900,0.932
38.950,0.929
39.000,0.926
39.050,0.923
39.100,0.920
39.150,0.918
39.200,0.915
39.250,0.912
39.300,0.908
39.350,0.905
39.400,0.903
39.450,0.899
39.500,0.896
39.550,0.894
39.600,0.891
39.650,0.888
39.700,0.886
39.750,0.882
39.800,0.879
39.850,0.876
39.900,0.873
39.950,0.871
40.000,0.868
40.050,0.864
40.100,0.861
40.150,0.859
40.200,0.856
40.250,0.854
40.300,0.851
40.350,0.848
40.400,0.845
40.450,0.842
40.500,0.839
40.550,0.836
40.600,0.834
40.650,0.832
40.700,0.830
40.750,0.827
40.800,0.824
40.850,0.821
40.900,0.818
40.950,0.816
41.000,0.813
41.050,0.810
41.100,0.808
41.150,0.804
41.200,0.801
41.250,0.798
41.300,0.796
41.350,0.794
41.400,0.793
41.450,0.789
41.500,0.787
41.550,0.785
41.600,0.781
41.650,0.778
41.700,0.777
41.750,0.774
41.800,0.771
41.850,0.769
41.900,0.767
41.950,0.764
42.000,0.761
42.050,0.759
42.100,0.756
42.150,0.754
42.200,0.751
42.250,0.748
42.300,0.746
42.350,0.742
42.400,0.740
42.450,0.738
42.500,0.735
42.550,0.733
42.600,0.731
42.650,0.729
42.700,0.726
42.750,0.723
42.800,0.720
42.850,0.718
42.900,0.715
42.950,0.714
43.000,0.712
43.050,0.710
43.100,0.707
43.150,0.705
43.200,0.702
43.250,0.700
43.300,0.697
43.350,0.695
43.400,0.692
43.450,0.690
43.500,0.687
43.550,0.684
43.600,0.683
43.650,0.680
43.700,0.678
43.750,0.676
43.800,0.674
43.850,0.672
43.900,0.670
43.950,0.667
44.000,0.666
44.050,0.663
44.100,0.662
44.150,0.659
44.200,0.658
44.250,0.655
44.300,0.652
44.350,0.650
44.400,0.649
44.450,0.646
44.500,0.644
44.550,0.643
44.600,0.640
44.650,0.638
44.700,0.636
44.750,0.633
44.800,0.631
44.850,0.629
44.900,0.627
44.950,0.625
45.000,0.623
45.050,0.621
45.100,0.618
45.150,0.616
45.200,0.614
45.250,0.613
45.300,0.612
45.350,0.610
45.400,0.607
45.450,0.605
45.500,0.603
45.550,0.601
45.600,0.598
45.650,0.597
45.700,0.595
45.750,0.594
45.800,0.591
45.850,0.589
45.900,0.587
45.950,0.586
46.000,0.584
46.050,0.583
46.100,0.581
46.150,0.579
46.200,0.576
46.250,0.574
46.300,0.572
46.350,0.570
46.400,0.568
46.450,0.567
46.500,0.565
46.550,0.563
46.600,0.560
46.650,0.557
46.700,0.556
46.750,0.554
46.800,0.553
46.850,0.551
46.900,0.550
46.950,0.549
47.000,0.546
47.050,0.544
47.100,0.543
47.150,0.542
47.200,0.540
47.250,0.539
47.300,0.536
47.350,0.534
47.400,0.532
47.450,0.530
47.500,0.528
47.550,0.527
47.600,0.526
47.650,0.524
47.700,0.522
47.750,0.520
47.800,0.518
47.850,0.516
47.900,0.515
47.950,0.514
48.000,0.512
48.050,0.510
48.100,0.509
48.150,0.506
48.200,0.505
48.250,0.503
48.300,0.501
48.350,0.501
48.400,0.499
48.450,0.497
48.500,0.495
48.550,0.493
48.600,0.492
48.650,0.490
48.700,0.488
48.750,0.487
48.800,0.486
48.850,0.484
48.900,0.482
48.950,0.480
49.000,0.479
49.050,0.477
49.100,0.476
49.150,0.475
49.200,0.473
49.250,0.471
49.300,0.469
49.350,0.468
49.400,0.467
49.450,0.465
49.500,0.464
49.550,0.463
49.600,0.461
49.650,0.459
49.700,0.457
49.750,0.456
49.800,0.454
49.850,0.453
49.900,0.451
49.950,0.451
50.000,0.448
50.050,0.447
50.100,0.445
50.150,0.444
50.200,0.442
50.250,0.441
50.300,0.440
50.350,0.438
50.400,0.437
50.450,0.434
50.500,0.433
50.550,0.432
50.600,0.431
50.650,0.430
50.700,0.429
50.750,0.428
50.800,0.425
50.850,0.424
50.900,0.423
50.950,0.421
51.000,0.420
51.050,0.419
51.100,0.418
51.150,0.416
51.200,0.415
51.250,0.413
51.300,0.412
51.350,0.410
51.400,0.409
51.450,0.408
51.500,0.408
51.550,0.406
51.600,0.404
51.650,0.403
51.700,0.401
51.750,0.400
51.800,0.400
51.850,0.399
51.900,0.397
51.950,0.395
52.000,0.394
52.050,0.392
52.100,0.391
52.150,0.390
52.200,0.389
52.250,0.387
52.300,0.386
52.350,0.384
52.400,0.382
52.450,0.382
52.500,0.381
52.550,0.379
52.600,0.378
52.650,0.377
52.700,0.377
52.750,0.374
52.800,0.373
52.850,0.372
52.900,0.370
52.950,0.370
53.000,0.369
53.050,0.368
53.100,0.367
53.150,0.365
53.200,0.364
53.250,0.363
53.300,0.361
53.350,0.361
53.400,0.360
53.450,0.358
53.500,0.355
53.550,0.354
53.600,0.353
53.650,0.351
53.700,0.351
53.750,0.350
53.800,0.349
53.850,0.348
53.900,0.346
53.950,0.345
54.000,0.345
54.050,0.344
54.100,0.343
54.150,0.342
54.200,0.341
54.250,0.340
54.300,0.338
54.350,0.337
54.400,0.336
54.450,0.335
54.500,0.335
54.550,0.334
54.600,0.332
54.650,0.331
54.700,0.330
54.750,0.329
54.800,0.328
54.850,0.327
54.900,0.327
54.950,0.325
55.000,0.324
55.050,0.322
55.100,0.321
55.150,0.319
55.200,0.319
55.250,0.317
55.300,0.317
55.350,0.316
55.400,0.314
55.450,0.313
55.500,0.312
55.550,0.312
55.600,0.311
55.650,0.310
55.700,0.309
55.750,0.308
55.800,0.307
55.850,0.306
55.900,0.305
55.950,0.304
56.000,0.304
56.050,0.303
56.100,0.302
56.150,0.300
56.200,0.299
56.250,0.298
56.300,0.298
56.350,0.297
56.400,0.296
56.450,0.295
56.500,0.294
56.550,0.294
56.600,0.292
56.650,0.290
56.700,0.290
56.750,0.288
56.800,0.288
56.850,0.287
56.900,0.287
56.950,0.285
57.000,0.284
57.050,0.283
57.100,0.283
57.150,0.282
57.200,0.281
57.250,0.281
57.300,0.280
57.350,0.278
57.400,0.277
57.450,0.276
57.500,0.276
57.550,0.275
57.600,0.274
57.650,0.274
57.700,0.272
57.750,0.271
57.800,0.270
57.850,0.269
57.900,0.269
57.950,0.268
58.000,0.267
58.050,0.266
58.100,0.265
58.150,0.263
58.200,0.263
58.250,0.261
58.300,0.261
58.350,0.261
58.400,0.260
58.450,0.258
58.500,0.257
58.550,0.255
58.600,0.254
58.650,0.253
58.700,0.252
58.750,0.252
58.800,0.251
58.850,0.251
58.900,0.250
58.950,0.248
59.000,0.247
59.050,0.247
59.100,0.246
59.150,0.246
59.200,0.245
59.250,0.244
59.300,0.243
59.350,0.242
59.400,0.242
59.450,0.241
59.500,0.241
59.550,0.241
59.600,0.240
59.650,0.238
59.700,0.237
59.750,0.236
59.800,0.235
59.850,0.235
59.900,0.234
59.950,0.233
60.000,0.232
60.050,0.231
60.100,0.230
60.150,0.229
60.200,0.229
60.250,0.228
60.300,0.228
60.350,0.228
60.400,0.226
60.450,0.225
60.500,0.225
60.550,0.224
60.600,0.223
60.650,0.223
60.700,0.222
60.750,0.221
60.800,0.221
60.850,0.220
60.900,0.219
60.950,0.218
61.000,0.218
61.050,0.218
61.100,0.217
61.150,0.216
61.200,0.215
61.250,0.214
61.300,0.213
61.350,0.212
61.400,0.212
61.450,0.212
61.500,0.212
61.550,0.210
61.600,0.210
61.650,0.208
61.700,0.208
61.750,0.207
61.800,0.207
61.850,0.206
61.900,0.205
61.950,0.204
62.000,0.204
62.050,0.203
62.100,0.202
62.150,0.202
62.200,0.201
62.250,0.200
62.300,0.199
62.350,0.199
62.400,0.198
62.450,0.197
62.500,0.196
62.550,0.196
62.600,0.196
62.650,0.195
62.700,0.195
62.750,0.193
62.800,0.192
62.850,0.192
62.900,0.191
62.950,0.191
63.000,0.191
63.050,0.189
63.100,0.188
63.150,0.188
63.200,0.188
63.250,0.187
63.300,0.187
63.350,0.187
63.400,0.186
63.450,0.186
63.500,0.184
63.550,0.184
63.600,0.183
63.650,0.182
63.700,0.182
63.750,0.182
63.800,0.182
63.850,0.181
63.900,0.180
63.950,0.179
64.000,0.179
64.050,0.178
64.100,0.178
64.150,0.178
64.200,0.178
64.250,0.176
64.300,0.175
64.350,0.175
64.400,0.174
64.450,0.174
64.500,0.173
64.550,0.173
64.600,0.173
64.650,0.171
64.700,0.171
64.750,0.170
64.800,0.170
64.850,0.169
64.900,0.169
64.950,0.168
65.000,0.168
65.050,0.167
65.100,0.166
65.150,0.165
65.200,0.165
65.250,0.165
65.300,0.165
65.350,0.164
65.400,0.163
65.450,0.162
65.500,0.162
65.550,0.161
65.600,0.161
65.650,0.161
65.700,0.161
65.750,0.160
65.800,0.159
65.850,0.158
65.900,0.158
65.950,0.158
66.000,0.157
66.050,0.157
66.100,0.157
66.150,0.156
66.200,0.156
66.250,0.155
66.300,0.154
66.350,0.154
66.400,0.154
66.450,0.153
66.500,0.153
66.550,0.152
66.600,0.151
66.650,0.149
66.700,0.149
66.750,0.149
66.800,0.149
66.850,0.149
66.900,0.148
66.950,0.147
67.000,0.146
67.050,0.146
67.100,0.145
67.150,0.145
67.200,0.145
67.250,0.144
67.300,0.144
67.350,0.143
67.400,0.143
67.450,0.142
67.500,0.142
67.550,0.142
67.600,0.141
67.650,0.141
67.700,0.140
67.750,0.140
67.800,0.139
67.850,0.138
67.900,0.138
67.950,0.137
68.000,0.137
68.050,0.136
68.100,0.136
68.150,0.135
68.200,0.135
68.250,0.134
68.300,0.134
68.350,0.134
68.400,0.133
68.450,0.133
68.500,0.132
68.550,0.132
68.600,0.132
68.650,0.131
68.700,0.131
68.750,0.131
68.800,0.130
68.850,0.130
68.900,0.129
68.950,0.129
69.000,0.129
69.050,0.128
69.100,0.128
69.150,0.127
69.200,0.127
69.250,0.126
69.300,0.126
69.350,0.125
69.400,0.125
69.450,0.125
69.500,0.125
69.550,0.125
69.600,0.124
69.650,0.123
69.700,0.123
69.750,0.123
69.800,0.122
69.850,0.122
69.900,0.122
69.950,0.122
70.000,0.121
70.050,0.121
70.100,0.120
70.150,0.120
70.200,0.120
70.250,0.119
70.300,0.119
70.350,0.118
70.400,0.118
70.450,0.118
70.500,0.117
70.550,0.117
70.600,0.116
70.650,0.116
70.700,0.116
70.750,0.115
70.800,0.114
70.850,0.113
70.900,0.114
70.950,0.113
71.000,0.113
71.050,0.113
71.100,0.112
71.150,0.111
71.200,0.111
71.250,0.110
71.300,0.110
71.350,0.110
71.400,0.110
71.450,0.110
71.500,0.110
71.550,0.109
71.600,0.108
71.650,0.108
71.700,0.107
71.750,0.108
71.800,0.108
71.850,0.107
71.900,0.107
71.950,0.106
72.000,0.105
72.050,0.105
72.100,0.105
72.150,0.105
72.200,0.105
72.250,0.104
72.300,0.104
72.350,0.103
72.400,0.103
72.450,0.103
72.500,0.103
72.550,0.103
72.600,0.103
72.650,0.103
72.700,0.102
72.750,0.101
72.800,0.102
72.850,0.101
72.900,0.101
72.950,0.101
73.000,0.101
73.050,0.100
73.100,0.099
73.150,0.099
73.200,0.098
73.250,0.098
73.300,0.098
73.350,0.098
73.400,0.099
73.450,0.097
73.500,0.097
73.550,0.096
73.600,0.096
73.650,0.096
73.700,0.097
73.750,0.096
73.800,0.096
73.850,0.095
73.900,0.095
73.950,0.094
74.000,0.094
74.050,0.094
74.100,0.094
74.150,0.094
74.200,0.093
74.250,0.092
74.300,0.092
74.350,0.092
74.400,0.092
74.450,0.091
74.500,0.092
74.550,0.092
74.600,0.091
74.650,0.090
74.700,0.090
74.750,0.090
74.800,0.089
74.850,0.089
74.900,0.090
74.950,0.089
75.000,0.089
75.050,0.088
75.100,0.088
75.150,0.087
75.200,0.087
75.250,0.087
75.300,0.087
75.350,0.086
75.400,0.086
75.450,0.086
75.500,0.085
75.550,0.085
75.600,0.085
75.650,0.085
75.700,0.085
75.750,0.084
75.800,0.084
75.850,0.083
75.900,0.083
75.950,0.083
76.000,0.083
76.050,0.083
76.100,0.082
76.150,0.082
76.200,0.081
76.250,0.081
76.300,0.081
76.350,0.080
76.400,0.080
76.450,0.080
76.500,0.079
76.550,0.078
76.600,0.078
76.650,0.078
76.700,0.078
76.750,0.078
76.800,0.078
76.850,0.078
76.900,0.077
76.950,0.077
77.000,0.077
77.050,0.076
77.100,0.076
77.150,0.076
77.200,0.076
77.250,0.076
77.300,0.075
77.350,0.075
77.400,0.074
77.450,0.074
77.500,0.074
77.550,0.074
77.600,0.074
77.650,0.074
77.700,0.073
77.750,0.072
77.800,0.072
77.850,0.072
77.900,0.072
77.950,0.072
78.000,0.072
78.050,0.071
78.100,0.071
78.150,0.071
78.200,0.071
78.250,0.070
78.300,0.071
78.350,0.071
78.400,0.071
78.450,0.069
78.500,0.069
78.550,0.068
78.600,0.068
78.650,0.068
78.700,0.068
78.750,0.068
78.800,0.068
78.850,0.067
78.900,0.068
78.950,0.067
79.000,0.068
79.050,0.067
79.100,0.068
79.150,0.067
79.200,0.067
79.250,0.066
79.300,0.066
79.350,0.066
79.400,0.066
79.450,0.066
79.500,0.066
79.550,0.065
79.600,0.065
79.650,0.064
79.700,0.064
79.750,0.064
79.800,0.064
79.850,0.064
79.900,0.064
79.950,0.064
80.000,0.063
80.050,0.063
80.100,0.063
80.150,0.063
80.200,0.063
80.250,0.063
80.300,0.063
80.350,0.063
80.400,0.063
80.450,0.062
80.500,0.062
80.550,0.061
80.600,0.062
80.650,0.062
80.700,0.062
80.750,0.061
80.800,0.061
80.850,0.060
80.900,0.060
80.950,0.060
81.000,0.060
81.050,0.060
81.100,0.060
81.150,0.060
81.200,0.059
81.250,0.059
81.300,0.059
81.350,0.059
81.400,0.059
81.450,0.059
81.500,0.059
81.550,0.058
81.600,0.058
81.650,0.057
81.700,0.058
81.750,0.058
81.800,0.057
81.850,0.057
81.900,0.057
81.950,0.056
82.000,0.056
82.050,0.056
82.100,0.056
82.150,0.056
82.200,0.057
82.250,0.056
82.300,0.056
82.350,0.055
82.400,0.055
82.450,0.055
82.500,0.055
82.550,0.055
82.600,0.055
82.650,0.055
82.700,0.055
82.750,0.054
82.800,0.054
82.850,0.054
82.900,0.054
82.950,0.054
83.000,0.054
83.050,0.053
83.100,0.053
83.150,0.052
83.200,0.053
83.250,0.052
83.300,0.053
83.350,0.053
83.400,0.053
83.450,0.051
83.500,0.051
83.550,0.052
83.600,0.052
83.650,0.051
83.700,0.052
83.750,0.051
83.800,0.051
83.850,0.051
83.900,0.050
83.950,0.050
84.000,0.050
84.050,0.050
84.100,0.051
84.150,0.050
84.200,0.050
84.250,0.049
84.300,0.049
84.350,0.049
84.400,0.049
84.450,0.049
84.500,0.049
84.550,0.049
84.600,0.048
84.650,0.047
84.700,0.048
84.750,0.047
84.800,0.048
84.850,0.048
84.900,0.047
84.950,0.047
85.000,0.046
85.050,0.045
85.100,0.045
85.150,0.045
85.200,0.046
85.250,0.046
85.300,0.046
85.350,0.045
85.400,0.044
85.450,0.044
85.500,0.044
85.550,0.044
85.600,0.044
85.650,0.044
85.700,0.044
85.750,0.044
85.800,0.043
85.850,0.043
85.900,0.043
85.950,0.043
86.000,0.044
86.050,0.043
86.100,0.043
86.150,0.042
86.200,0.042
86.250,0.042
86.300,0.042
86.350,0.043
86.400,0.043
86.450,0.043
86.500,0.042
86.550,0.041
86.600,0.041
86.650,0.041
86.700,0.041
86.750,0.041
86.800,0.042
86.850,0.041
86.900,0.041
86.950,0.040
87.000,0.041
87.050,0.040
87.100,0.040
87.150,0.040
87.200,0.041
87.250,0.041
87.300,0.040
87.350,0.039
87.400,0.039
87.450,0.039
87.500,0.040
87.550,0.040
87.600,0.040
87.650,0.039
87.700,0.039
87.750,0.039
87.800,0.038
87.850,0.039
87.900,0.039
87.950,0.039
88.000,0.039
88.050,0.038
88.100,0.038
88.150,0.038
88.200,0.037
88.250,0.038
88.300,0.038
88.350,0.038
88.400,0.038
88.450,0.037
88.500,0.037
88.550,0.037
88.600,0.037
88.650,0.037
88.700,0.037
88.750,0.037
88.800,0.036
88.850,0.036
88.900,0.036
88.950,0.036
89.000,0.036
89.050,0.036
89.100,0.036
89.150,0.036
89.200,0.035
89.250,0.035
89.300,0.035
89.350,0.035
89.400,0.035
89.450,0.035
89.500,0.035
89.550,0.035
89.600,0.034
89.650,0.034
89.700,0.034
89.750,0.035
89.800,0.035
89.850,0.035
89.900,0.035
89.950,0.034
90.000,0.034
90.050,0.034
90.100,0.034
90.150,0.034
90.200,0.034
90.250,0.034
90.300,0.034
90.350,0.033
90.400,0.033
90.450,0.033
90.500,0.033
90.550,0.032
90.600,0.033
90.650,0.033
90.700,0.033
90.750,0.032
90.800,0.032
90.850,0.032
90.900,0.031
90.950,0.031
91.000,0.031
91.050,0.032
91.100,0.031
91.150,0.031
91.200,0.031
91.250,0.031
91.300,0.031
91.350,0.031
91.400,0.032
91.450,0.031
91.500,0.031
91.550,0.031
91.600,0.031
91.650,0.031
